"SPL Horizontal"																																																																							
"On-Axis"		"10°"		"-10°"		"20°"		"-20°"		"30°"		"-30°"		"40°"		"-40°"		"50°"		"-50°"		"60°"		"-60°"		"70°"		"-70°"		"80°"		"-80°"		"90°"		"-90°"		"100°"		"-100°"		"110°"		"-110°"		"120°"		"-120°"		"130°"		"-130°"		"140°"		"-140°"		"150°"		"-150°"		"160°"		"-160°"		"170°"		"-170°"		"180°"	
"Frequency [Hz]"	"Sound Pessure Level [dB]  / [2.83V 1m] "	"Frequency [Hz]"	"Sound Pessure Level [dB]  / [2.83V 1m] "	"Frequency [Hz]"	"Sound Pessure Level [dB]  / [2.83V 1m] "	"Frequency [Hz]"	"Sound Pessure Level [dB]  / [2.83V 1m] "	"Frequency [Hz]"	"Sound Pessure Level [dB]  / [2.83V 1m] "	"Frequency [Hz]"	"Sound Pessure Level [dB]  / [2.83V 1m] "	"Frequency [Hz]"	"Sound Pessure Level [dB]  / [2.83V 1m] "	"Frequency [Hz]"	"Sound Pessure Level [dB]  / [2.83V 1m] "	"Frequency [Hz]"	"Sound Pessure Level [dB]  / [2.83V 1m] "	"Frequency [Hz]"	"Sound Pessure Level [dB]  / [2.83V 1m] "	"Frequency [Hz]"	"Sound Pessure Level [dB]  / [2.83V 1m] "	"Frequency [Hz]"	"Sound Pessure Level [dB]  / [2.83V 1m] "	"Frequency [Hz]"	"Sound Pessure Level [dB]  / [2.83V 1m] "	"Frequency [Hz]"	"Sound Pessure Level [dB]  / [2.83V 1m] "	"Frequency [Hz]"	"Sound Pessure Level [dB]  / [2.83V 1m] "	"Frequency [Hz]"	"Sound Pessure Level [dB]  / [2.83V 1m] "	"Frequency [Hz]"	"Sound Pessure Level [dB]  / [2.83V 1m] "	"Frequency [Hz]"	"Sound Pessure Level [dB]  / [2.83V 1m] "	"Frequency [Hz]"	"Sound Pessure Level [dB]  / [2.83V 1m] "	"Frequency [Hz]"	"Sound Pessure Level [dB]  / [2.83V 1m] "	"Frequency [Hz]"	"Sound Pessure Level [dB]  / [2.83V 1m] "	"Frequency [Hz]"	"Sound Pessure Level [dB]  / [2.83V 1m] "	"Frequency [Hz]"	"Sound Pessure Level [dB]  / [2.83V 1m] "	"Frequency [Hz]"	"Sound Pessure Level [dB]  / [2.83V 1m] "	"Frequency [Hz]"	"Sound Pessure Level [dB]  / [2.83V 1m] "	"Frequency [Hz]"	"Sound Pessure Level [dB]  / [2.83V 1m] "	"Frequency [Hz]"	"Sound Pessure Level [dB]  / [2.83V 1m] "	"Frequency [Hz]"	"Sound Pessure Level [dB]  / [2.83V 1m] "	"Frequency [Hz]"	"Sound Pessure Level [dB]  / [2.83V 1m] "	"Frequency [Hz]"	"Sound Pessure Level [dB]  / [2.83V 1m] "	"Frequency [Hz]"	"Sound Pessure Level [dB]  / [2.83V 1m] "	"Frequency [Hz]"	"Sound Pessure Level [dB]  / [2.83V 1m] "	"Frequency [Hz]"	"Sound Pessure Level [dB]  / [2.83V 1m] "	"Frequency [Hz]"	"Sound Pessure Level [dB]  / [2.83V 1m] "	"Frequency [Hz]"	"Sound Pessure Level [dB]  / [2.83V 1m] "	"Frequency [Hz]"	"Sound Pessure Level [dB]  / [2.83V 1m] "
20.5078	64.7105	20.5078	64.5316	20.5078	64.9025	20.5078	64.3679	20.5078	65.1038	20.5078	64.2204	20.5078	65.3096	20.5078	64.089	20.5078	65.5134	20.5078	63.9727	20.5078	65.7077	20.5078	63.8706	20.5078	65.884	20.5078	63.7817	20.5078	66.0333	20.5078	63.7062	20.5078	66.1463	20.5078	63.6453	20.5078	66.2143	20.5078	63.6024	20.5078	66.2295	20.5078	63.5822	20.5078	66.1865	20.5078	63.5913	20.5078	66.0825	20.5078	63.6369	20.5078	65.9187	20.5078	63.7257	20.5078	65.7008	20.5078	63.8624	20.5078	65.4392	20.5078	64.0487	20.5078	65.1486	20.5078	64.2813	20.5078	64.8465	20.5078	64.5517
21.2402	57.764	21.2402	57.7336	21.2402	57.8514	21.2402	57.7567	21.2402	57.9965	21.2402	57.8284	21.2402	58.1969	21.2402	57.9427	21.2402	58.4464	21.2402	58.0938	21.2402	58.7355	21.2402	58.2759	21.2402	59.0517	21.2402	58.4839	21.2402	59.3809	21.2402	58.7132	21.2402	59.7082	21.2402	58.9592	21.2402	60.0194	21.2402	59.2169	21.2402	60.302	21.2402	59.4808	21.2402	60.5461	21.2402	59.7443	21.2402	60.7447	21.2402	60	21.2402	60.8939	21.2402	60.2403	21.2402	60.9928	21.2402	60.4581	21.2402	61.0426	21.2402	60.6474	21.2402	61.0458	21.2402	60.8038	21.2402	61.0054	21.2402	60.9239
21.9727	56.9746	21.9727	57.143	21.9727	56.8291	21.9727	57.3303	21.9727	56.7099	21.9727	57.5325	21.9727	56.6193	21.9727	57.7455	21.9727	56.5588	21.9727	57.9662	21.9727	56.5294	21.9727	58.1918	21.9727	56.5325	21.9727	58.4206	21.9727	56.5712	21.9727	58.6511	21.9727	56.651	21.9727	58.8814	21.9727	56.78	21.9727	59.1083	21.9727	56.9671	21.9727	59.3267	21.9727	57.2189	21.9727	59.528	21.9727	57.5347	21.9727	59.7007	21.9727	57.9037	21.9727	59.831	21.9727	58.3044	21.9727	59.9038	21.9727	58.7084	21.9727	59.9054	21.9727	59.0853	21.9727	59.8255	21.9727	59.4087	21.9727	59.659
22.7051	63.7598	22.7051	63.7534	22.7051	63.7721	22.7051	63.751	22.7051	63.7916	22.7051	63.7502	22.7051	63.8191	22.7051	63.7488	22.7051	63.8542	22.7051	63.7445	22.7051	63.8959	22.7051	63.7354	22.7051	63.9419	22.7051	63.7205	22.7051	63.9891	22.7051	63.6995	22.7051	64.0338	22.7051	63.6734	22.7051	64.0714	22.7051	63.6444	22.7051	64.0977	22.7051	63.6159	22.7051	64.1088	22.7051	63.5923	22.7051	64.1017	22.7051	63.5781	22.7051	64.0754	22.7051	63.5777	22.7051	64.0304	22.7051	63.5941	22.7051	63.9695	22.7051	63.6288	22.7051	63.8977	22.7051	63.6807	22.7051	63.821	22.7051	63.7465
23.4375	58.0956	23.4375	57.7864	23.4375	58.4117	23.4375	57.4894	23.4375	58.7283	23.4375	57.2087	23.4375	59.0377	23.4375	56.9473	23.4375	59.3313	23.4375	56.7075	23.4375	59.6001	23.4375	56.4914	23.4375	59.8341	23.4375	56.3019	23.4375	60.0236	23.4375	56.1426	23.4375	60.1587	23.4375	56.0195	23.4375	60.2305	23.4375	55.9403	23.4375	60.2313	23.4375	55.915	23.4375	60.1554	23.4375	55.954	23.4375	59.9996	23.4375	56.067	23.4375	59.7645	23.4375	56.2601	23.4375	59.4549	23.4375	56.5338	23.4375	59.0804	23.4375	56.8814	23.4375	58.6557	23.4375	57.2888	23.4375	58.2001	23.4375	57.7363
24.1699	60.3207	24.1699	60.2489	24.1699	60.4045	24.1699	60.1898	24.1699	60.4986	24.1699	60.1425	24.1699	60.6001	24.1699	60.1056	24.1699	60.7047	24.1699	60.0768	24.1699	60.8069	24.1699	60.0537	24.1699	60.9007	24.1699	60.0338	24.1699	60.9796	24.1699	60.015	24.1699	61.0371	24.1699	59.9963	24.1699	61.0678	24.1699	59.9776	24.1699	61.0673	24.1699	59.9605	24.1699	61.0337	24.1699	59.9481	24.1699	60.9674	24.1699	59.9449	24.1699	60.8717	24.1699	59.956	24.1699	60.7527	24.1699	59.9865	24.1699	60.6186	24.1699	60.0401	24.1699	60.479	24.1699	60.1187	24.1699	60.3436	24.1699	60.2212
25.6348	59.4925	25.6348	59.4586	25.6348	59.5524	25.6348	59.4512	25.6348	59.6371	25.6348	59.4697	25.6348	59.7441	25.6348	59.5128	25.6348	59.8698	25.6348	59.5787	25.6348	60.0095	25.6348	59.6648	25.6348	60.1578	25.6348	59.7682	25.6348	60.3084	25.6348	59.8855	25.6348	60.455	25.6348	60.0127	25.6348	60.5914	25.6348	60.1454	25.6348	60.7123	25.6348	60.2791	25.6348	60.8135	25.6348	60.4092	25.6348	60.8924	25.6348	60.5313	25.6348	60.9483	25.6348	60.6419	25.6348	60.982	25.6348	60.7384	25.6348	60.9954	25.6348	60.8194	25.6348	60.9909	25.6348	60.8848	25.6348	60.9704	25.6348	60.935
26.3672	63.8641	26.3672	63.8875	26.3672	63.8469	26.3672	63.9161	26.3672	63.8367	26.3672	63.9484	26.3672	63.8336	26.3672	63.9828	26.3672	63.8373	26.3672	64.0174	26.3672	63.8473	26.3672	64.0504	26.3672	63.8624	26.3672	64.0801	26.3672	63.8814	26.3672	64.1052	26.3672	63.9029	26.3672	64.1247	26.3672	63.9254	26.3672	64.1382	26.3672	63.948	26.3672	64.1458	26.3672	63.9696	26.3672	64.148	26.3672	63.99	26.3672	64.1457	26.3672	64.0091	26.3672	64.1396	26.3672	64.0271	26.3672	64.1306	26.3672	64.0443	26.3672	64.1193	26.3672	64.0608	26.3672	64.1063	26.3672	64.0768	26.3672	64.092
27.0996	63.4746	27.0996	63.5051	27.0996	63.451	27.0996	63.5418	27.0996	63.4348	27.0996	63.5836	27.0996	63.4262	27.0996	63.6291	27.0996	63.4246	27.0996	63.6767	27.0996	63.4294	27.0996	63.7248	27.0996	63.4398	27.0996	63.7716	27.0996	63.4547	27.0996	63.8155	27.0996	63.4732	27.0996	63.8548	27.0996	63.4947	27.0996	63.8881	27.0996	63.519	27.0996	63.9142	27.0996	63.5464	27.0996	63.9317	27.0996	63.5773	27.0996	63.9398	27.0996	63.6124	27.0996	63.9377	27.0996	63.6519	27.0996	63.9253	27.0996	63.6953	27.0996	63.9026	27.0996	63.7412	27.0996	63.8709	27.0996	63.7876	27.0996	63.8317
27.832	64.2308	27.832	64.2652	27.832	64.1981	27.832	64.3004	27.832	64.1677	27.832	64.3353	27.832	64.1403	27.832	64.3688	27.832	64.1161	27.832	64.3998	27.832	64.0955	27.832	64.427	27.832	64.0784	27.832	64.4494	27.832	64.0651	27.832	64.4662	27.832	64.0558	27.832	64.4767	27.832	64.0508	27.832	64.4803	27.832	64.0505	27.832	64.4769	27.832	64.0556	27.832	64.4662	27.832	64.067	27.832	64.4482	27.832	64.0852	27.832	64.4232	27.832	64.1105	27.832	64.3916	27.832	64.1428	27.832	64.3541	27.832	64.181	27.832	64.3123	27.832	64.2234	27.832	64.268
29.2969	66.2063	29.2969	66.2736	29.2969	66.1498	29.2969	66.3503	29.2969	66.1057	29.2969	66.4348	29.2969	66.0753	29.2969	66.5257	29.2969	66.06	29.2969	66.6215	29.2969	66.0608	29.2969	66.7208	29.2969	66.0786	29.2969	66.8219	29.2969	66.1138	29.2969	66.9229	29.2969	66.1665	29.2969	67.0218	29.2969	66.2365	29.2969	67.1158	29.2969	66.3227	29.2969	67.2016	29.2969	66.4239	29.2969	67.2753	29.2969	66.5379	29.2969	67.3326	29.2969	66.6617	29.2969	67.3691	29.2969	66.7912	29.2969	67.3811	29.2969	66.9213	29.2969	67.3659	29.2969	67.0458	29.2969	67.3224	29.2969	67.1581	29.2969	67.2521
30.0293	69.8526	30.0293	69.8891	30.0293	69.8241	30.0293	69.9324	30.0293	69.8046	30.0293	69.9808	30.0293	69.7948	30.0293	70.0329	30.0293	69.7949	30.0293	70.0867	30.0293	69.8051	30.0293	70.1401	30.0293	69.8248	30.0293	70.191	30.0293	69.853	30.0293	70.2374	30.0293	69.8885	30.0293	70.2773	30.0293	69.9296	30.0293	70.3092	30.0293	69.9742	30.0293	70.3322	30.0293	70.0205	30.0293	70.3459	30.0293	70.0665	30.0293	70.3508	30.0293	70.1106	30.0293	70.3477	30.0293	70.1518	30.0293	70.3378	30.0293	70.1893	30.0293	70.3226	30.0293	70.2231	30.0293	70.303	30.0293	70.2531	30.0293	70.2797
31.4941	70.7858	31.4941	70.8492	31.4941	70.7257	31.4941	70.9147	31.4941	70.6704	31.4941	70.9808	31.4941	70.6211	31.4941	71.0459	31.4941	70.5789	31.4941	71.1085	31.4941	70.545	31.4941	71.1667	31.4941	70.5205	31.4941	71.219	31.4941	70.5064	31.4941	71.2637	31.4941	70.5037	31.4941	71.2992	31.4941	70.5132	31.4941	71.3241	31.4941	70.5355	31.4941	71.337	31.4941	70.5709	31.4941	71.3371	31.4941	70.6189	31.4941	71.3236	31.4941	70.6785	31.4941	71.2965	31.4941	70.7478	31.4941	71.2559	31.4941	70.8245	31.4941	71.2028	31.4941	70.9054	31.4941	71.1387	31.4941	70.987	31.4941	71.0659
32.2266	71.7829	32.2266	71.8369	32.2266	71.7339	32.2266	71.8946	32.2266	71.6907	32.2266	71.9548	32.2266	71.6542	32.2266	72.0164	32.2266	71.6253	32.2266	72.0778	32.2266	71.6049	32.2266	72.1374	32.2266	71.5935	32.2266	72.1936	32.2266	71.592	32.2266	72.2444	32.2266	71.6008	32.2266	72.2882	32.2266	71.6204	32.2266	72.323	32.2266	71.651	32.2266	72.3473	32.2266	71.6924	32.2266	72.3597	32.2266	71.7439	32.2266	72.3591	32.2266	71.8045	32.2266	72.345	32.2266	71.8722	32.2266	72.3173	32.2266	71.9448	32.2266	72.2766	32.2266	72.0195	32.2266	72.2243	32.2266	72.093	32.2266	72.1623
33.6914	75.1399	33.6914	75.1348	33.6914	75.1512	33.6914	75.1362	33.6914	75.1685	33.6914	75.144	33.6914	75.1914	33.6914	75.1582	33.6914	75.2194	33.6914	75.1785	33.6914	75.2517	33.6914	75.2046	33.6914	75.2878	33.6914	75.236	33.6914	75.3266	33.6914	75.2721	33.6914	75.3673	33.6914	75.3119	33.6914	75.4088	33.6914	75.3545	33.6914	75.4501	33.6914	75.3987	33.6914	75.4898	33.6914	75.443	33.6914	75.5268	33.6914	75.486	33.6914	75.5598	33.6914	75.5258	33.6914	75.5875	33.6914	75.5609	33.6914	75.6086	33.6914	75.5897	33.6914	75.6222	33.6914	75.6109	33.6914	75.6273	33.6914	75.6236
34.4238	75.9674	34.4238	75.9738	34.4238	75.9662	34.4238	75.9851	34.4238	75.9703	34.4238	76.0013	34.4238	75.9796	34.4238	76.022	34.4238	75.994	34.4238	76.0471	34.4238	76.0135	34.4238	76.0759	34.4238	76.0378	34.4238	76.1082	34.4238	76.0665	34.4238	76.1432	34.4238	76.0993	34.4238	76.1804	34.4238	76.1355	34.4238	76.2188	34.4238	76.1743	34.4238	76.2573	34.4238	76.2146	34.4238	76.2947	34.4238	76.2551	34.4238	76.3295	34.4238	76.2943	34.4238	76.3602	34.4238	76.3305	34.4238	76.3852	34.4238	76.3619	34.4238	76.403	34.4238	76.387	34.4238	76.4125	34.4238	76.4044	34.4238	76.413
35.8887	78.1122	35.8887	78.1247	35.8887	78.1038	35.8887	78.1412	35.8887	78.0998	35.8887	78.1614	35.8887	78.1	35.8887	78.185	35.8887	78.1047	35.8887	78.2116	35.8887	78.1137	35.8887	78.2406	35.8887	78.127	35.8887	78.2715	35.8887	78.1444	35.8887	78.3035	35.8887	78.1659	35.8887	78.3355	35.8887	78.191	35.8887	78.3667	35.8887	78.2194	35.8887	78.3959	35.8887	78.2506	35.8887	78.4219	35.8887	78.2837	35.8887	78.4436	35.8887	78.3177	35.8887	78.4597	35.8887	78.3514	35.8887	78.4694	35.8887	78.3834	35.8887	78.4721	35.8887	78.4124	35.8887	78.4674	35.8887	78.4368	35.8887	78.4554
37.3535	80.4678	37.3535	80.4818	37.3535	80.4567	37.3535	80.4984	37.3535	80.4486	37.3535	80.5173	37.3535	80.4437	37.3535	80.5382	37.3535	80.4422	37.3535	80.5605	37.3535	80.444	37.3535	80.5839	37.3535	80.4492	37.3535	80.6076	37.3535	80.4579	37.3535	80.631	37.3535	80.4699	37.3535	80.6534	37.3535	80.4852	37.3535	80.674	37.3535	80.5037	37.3535	80.6921	37.3535	80.5249	37.3535	80.7067	37.3535	80.5486	37.3535	80.7173	37.3535	80.574	37.3535	80.7231	37.3535	80.6003	37.3535	80.7237	37.3535	80.6265	37.3535	80.7189	37.3535	80.6516	37.3535	80.7088	37.3535	80.6744	37.3535	80.6937
38.8184	82.4278	38.8184	82.44	38.8184	82.4172	38.8184	82.4535	38.8184	82.4084	38.8184	82.4681	38.8184	82.4015	38.8184	82.4836	38.8184	82.3969	38.8184	82.4997	38.8184	82.3948	38.8184	82.5161	38.8184	82.3953	38.8184	82.5326	38.8184	82.3988	38.8184	82.5486	38.8184	82.4054	38.8184	82.5639	38.8184	82.4153	38.8184	82.5779	38.8184	82.4283	38.8184	82.5901	38.8184	82.4444	38.8184	82.5999	38.8184	82.4631	38.8184	82.6069	38.8184	82.4837	38.8184	82.6104	38.8184	82.5056	38.8184	82.6101	38.8184	82.5276	38.8184	82.6056	38.8184	82.5487	38.8184	82.5969	38.8184	82.5679	38.8184	82.5842
39.5508	83.4232	39.5508	83.4364	39.5508	83.4109	39.5508	83.4504	39.5508	83.4001	39.5508	83.4649	39.5508	83.3909	39.5508	83.4794	39.5508	83.3837	39.5508	83.4937	39.5508	83.3789	39.5508	83.5075	39.5508	83.3766	39.5508	83.5204	39.5508	83.3772	39.5508	83.5322	39.5508	83.3808	39.5508	83.5425	39.5508	83.3876	39.5508	83.5512	39.5508	83.3975	39.5508	83.5578	39.5508	83.4103	39.5508	83.5622	39.5508	83.4256	39.5508	83.5641	39.5508	83.4429	39.5508	83.5633	39.5508	83.4613	39.5508	83.5596	39.5508	83.4801	39.5508	83.5529	39.5508	83.4985	39.5508	83.5432	39.5508	83.5156	39.5508	83.5306
41.0156	85.2879	41.0156	85.3171	41.0156	85.2568	41.0156	85.3442	41.0156	85.224	41.0156	85.3693	41.0156	85.1898	41.0156	85.3922	41.0156	85.1548	41.0156	85.4128	41.0156	85.1197	41.0156	85.4308	41.0156	85.0857	41.0156	85.446	41.0156	85.0541	41.0156	85.4577	41.0156	85.0266	41.0156	85.4653	41.0156	85.005	41.0156	85.4678	41.0156	84.9911	41.0156	85.4644	41.0156	84.9868	41.0156	85.4541	41.0156	84.9932	41.0156	85.4361	41.0156	85.0111	41.0156	85.4097	41.0156	85.0403	41.0156	85.3751	41.0156	85.0793	41.0156	85.3329	41.0156	85.1262	41.0156	85.2844	41.0156	85.1781	41.0156	85.2319
42.4805	87.722	42.4805	87.7158	42.4805	87.7279	42.4805	87.7096	42.4805	87.7333	42.4805	87.7034	42.4805	87.738	42.4805	87.6975	42.4805	87.7419	42.4805	87.692	42.4805	87.7448	42.4805	87.6871	42.4805	87.7466	42.4805	87.6828	42.4805	87.7472	42.4805	87.6794	42.4805	87.7466	42.4805	87.6769	42.4805	87.7448	42.4805	87.6755	42.4805	87.7419	42.4805	87.6752	42.4805	87.7381	42.4805	87.676	42.4805	87.7335	42.4805	87.678	42.4805	87.7284	42.4805	87.681	42.4805	87.7229	42.4805	87.6849	42.4805	87.7172	42.4805	87.6894	42.4805	87.7114	42.4805	87.6945	42.4805	87.7056	42.4805	87.7
43.9453	89.7137	43.9453	89.7078	43.9453	89.7189	43.9453	89.7014	43.9453	89.7231	43.9453	89.6946	43.9453	89.7262	43.9453	89.6878	43.9453	89.7281	43.9453	89.6811	43.9453	89.7286	43.9453	89.6748	43.9453	89.7279	43.9453	89.669	43.9453	89.7258	43.9453	89.6641	43.9453	89.7226	43.9453	89.66	43.9453	89.7184	43.9453	89.657	43.9453	89.7133	43.9453	89.6551	43.9453	89.7077	43.9453	89.6543	43.9453	89.7017	43.9453	89.6546	43.9453	89.6956	43.9453	89.6559	43.9453	89.6896	43.9453	89.6581	43.9453	89.6838	43.9453	89.661	43.9453	89.6784	43.9453	89.6646	43.9453	89.6733	43.9453	89.6687
45.4102	91.5076	45.4102	91.5024	45.4102	91.511	45.4102	91.4958	45.4102	91.5126	45.4102	91.4878	45.4102	91.5124	45.4102	91.4787	45.4102	91.5104	45.4102	91.4689	45.4102	91.5067	45.4102	91.4587	45.4102	91.5014	45.4102	91.4484	45.4102	91.4947	45.4102	91.4386	45.4102	91.487	45.4102	91.4294	45.4102	91.4785	45.4102	91.4214	45.4102	91.4696	45.4102	91.4148	45.4102	91.4606	45.4102	91.4098	45.4102	91.4518	45.4102	91.4064	45.4102	91.4434	45.4102	91.4048	45.4102	91.4356	45.4102	91.4047	45.4102	91.4286	45.4102	91.4061	45.4102	91.4223	45.4102	91.4087	45.4102	91.4169	45.4102	91.4123
47.6074	94.2087	47.6074	94.2036	47.6074	94.2117	47.6074	94.1966	47.6074	94.2125	47.6074	94.1879	47.6074	94.2112	47.6074	94.1777	47.6074	94.2077	47.6074	94.1665	47.6074	94.2021	47.6074	94.1545	47.6074	94.1947	47.6074	94.1422	47.6074	94.1857	47.6074	94.13	47.6074	94.1755	47.6074	94.1183	47.6074	94.1643	47.6074	94.1077	47.6074	94.1527	47.6074	94.0984	47.6074	94.141	47.6074	94.0907	47.6074	94.1296	47.6074	94.0848	47.6074	94.1189	47.6074	94.0808	47.6074	94.1092	47.6074	94.0788	47.6074	94.1006	47.6074	94.0785	47.6074	94.0934	47.6074	94.0799	47.6074	94.0874	47.6074	94.0829
49.0723	95.8913	49.0723	95.8853	49.0723	95.8947	49.0723	95.8769	49.0723	95.8954	49.0723	95.8662	49.0723	95.8934	49.0723	95.8536	49.0723	95.8887	49.0723	95.8395	49.0723	95.8816	49.0723	95.8244	49.0723	95.8723	49.0723	95.8087	49.0723	95.8611	49.0723	95.793	49.0723	95.8484	49.0723	95.778	49.0723	95.8347	49.0723	95.764	49.0723	95.8203	49.0723	95.7517	49.0723	95.8058	49.0723	95.7414	49.0723	95.7916	49.0723	95.7335	49.0723	95.7781	49.0723	95.7281	49.0723	95.7656	49.0723	95.7252	49.0723	95.7545	49.0723	95.7248	49.0723	95.7448	49.0723	95.7267	49.0723	95.7369	49.0723	95.7308
50.5371	97.446	50.5371	97.4397	50.5371	97.4492	50.5371	97.4306	50.5371	97.4493	50.5371	97.4188	50.5371	97.4463	50.5371	97.4048	50.5371	97.4403	50.5371	97.3891	50.5371	97.4316	50.5371	97.372	50.5371	97.4204	50.5371	97.3544	50.5371	97.4071	50.5371	97.3366	50.5371	97.3922	50.5371	97.3196	50.5371	97.3763	50.5371	97.3037	50.5371	97.3598	50.5371	97.2897	50.5371	97.3433	50.5371	97.2778	50.5371	97.3274	50.5371	97.2686	50.5371	97.3125	50.5371	97.2621	50.5371	97.2989	50.5371	97.2583	50.5371	97.2869	50.5371	97.2572	50.5371	97.2768	50.5371	97.2587	50.5371	97.2686	50.5371	97.2625
52.7344	99.5163	52.7344	99.5096	52.7344	99.5195	52.7344	99.4998	52.7344	99.5192	52.7344	99.487	52.7344	99.5155	52.7344	99.4717	52.7344	99.5085	52.7344	99.4544	52.7344	99.4985	52.7344	99.4358	52.7344	99.486	52.7344	99.4165	52.7344	99.4713	52.7344	99.3974	52.7344	99.4552	52.7344	99.379	52.7344	99.4381	52.7344	99.3622	52.7344	99.4206	52.7344	99.3475	52.7344	99.4035	52.7344	99.3354	52.7344	99.3871	52.7344	99.3261	52.7344	99.3719	52.7344	99.3197	52.7344	99.3582	52.7344	99.3163	52.7344	99.3463	52.7344	99.3156	52.7344	99.3361	52.7344	99.3175	52.7344	99.3279	52.7344	99.3216
54.1992	100.696	54.1992	100.689	54.1992	100.699	54.1992	100.678	54.1992	100.699	54.1992	100.664	54.1992	100.695	54.1992	100.647	54.1992	100.687	54.1992	100.628	54.1992	100.676	54.1992	100.608	54.1992	100.663	54.1992	100.587	54.1992	100.647	54.1992	100.566	54.1992	100.629	54.1992	100.546	54.1992	100.611	54.1992	100.528	54.1992	100.592	54.1992	100.512	54.1992	100.574	54.1992	100.499	54.1992	100.556	54.1992	100.49	54.1992	100.54	54.1992	100.483	54.1992	100.525	54.1992	100.48	54.1992	100.512	54.1992	100.479	54.1992	100.502	54.1992	100.481	54.1992	100.493	54.1992	100.486
56.3965	102.135	56.3965	102.13	56.3965	102.137	56.3965	102.12	56.3965	102.135	56.3965	102.107	56.3965	102.129	56.3965	102.09	56.3965	102.119	56.3965	102.072	56.3965	102.106	56.3965	102.051	56.3965	102.09	56.3965	102.03	56.3965	102.072	56.3965	102.009	56.3965	102.053	56.3965	101.989	56.3965	102.033	56.3965	101.971	56.3965	102.014	56.3965	101.955	56.3965	101.996	56.3965	101.942	56.3965	101.979	56.3965	101.932	56.3965	101.964	56.3965	101.924	56.3965	101.951	56.3965	101.92	56.3965	101.941	56.3965	101.918	56.3965	101.932	56.3965	101.919	56.3965	101.926	56.3965	101.921
58.5938	103.195	58.5938	103.189	58.5938	103.196	58.5938	103.18	58.5938	103.193	58.5938	103.166	58.5938	103.186	58.5938	103.149	58.5938	103.174	58.5938	103.13	58.5938	103.16	58.5938	103.11	58.5938	103.142	58.5938	103.088	58.5938	103.122	58.5938	103.067	58.5938	103.102	58.5938	103.048	58.5938	103.081	58.5938	103.03	58.5938	103.061	58.5938	103.014	58.5938	103.042	58.5938	103.002	58.5938	103.026	58.5938	102.992	58.5938	103.012	58.5938	102.985	58.5938	103.001	58.5938	102.981	58.5938	102.993	58.5938	102.979	58.5938	102.986	58.5938	102.978	58.5938	102.982	58.5938	102.98
60.0586	103.659	60.0586	103.653	60.0586	103.66	60.0586	103.642	60.0586	103.657	60.0586	103.628	60.0586	103.649	60.0586	103.61	60.0586	103.637	60.0586	103.589	60.0586	103.621	60.0586	103.568	60.0586	103.602	60.0586	103.545	60.0586	103.581	60.0586	103.523	60.0586	103.56	60.0586	103.503	60.0586	103.537	60.0586	103.484	60.0586	103.516	60.0586	103.468	60.0586	103.497	60.0586	103.456	60.0586	103.48	60.0586	103.446	60.0586	103.466	60.0586	103.44	60.0586	103.455	60.0586	103.435	60.0586	103.446	60.0586	103.433	60.0586	103.44	60.0586	103.433	60.0586	103.436	60.0586	103.434
62.2559	104.116	62.2559	104.109	62.2559	104.119	62.2559	104.096	62.2559	104.115	62.2559	104.079	62.2559	104.107	62.2559	104.058	62.2559	104.093	62.2559	104.034	62.2559	104.076	62.2559	104.008	62.2559	104.055	62.2559	103.981	62.2559	104.031	62.2559	103.954	62.2559	104.006	62.2559	103.93	62.2559	103.981	62.2559	103.907	62.2559	103.957	62.2559	103.888	62.2559	103.934	62.2559	103.873	62.2559	103.914	62.2559	103.862	62.2559	103.896	62.2559	103.854	62.2559	103.882	62.2559	103.849	62.2559	103.871	62.2559	103.848	62.2559	103.862	62.2559	103.848	62.2559	103.856	62.2559	103.851
64.4531	104.307	64.4531	104.299	64.4531	104.31	64.4531	104.285	64.4531	104.306	64.4531	104.267	64.4531	104.298	64.4531	104.245	64.4531	104.284	64.4531	104.219	64.4531	104.265	64.4531	104.192	64.4531	104.243	64.4531	104.164	64.4531	104.219	64.4531	104.137	64.4531	104.193	64.4531	104.112	64.4531	104.167	64.4531	104.089	64.4531	104.141	64.4531	104.07	64.4531	104.118	64.4531	104.055	64.4531	104.097	64.4531	104.044	64.4531	104.08	64.4531	104.036	64.4531	104.065	64.4531	104.032	64.4531	104.054	64.4531	104.031	64.4531	104.045	64.4531	104.032	64.4531	104.039	64.4531	104.034
66.6504	104.268	66.6504	104.258	66.6504	104.271	66.6504	104.243	66.6504	104.268	66.6504	104.223	66.6504	104.259	66.6504	104.198	66.6504	104.245	66.6504	104.17	66.6504	104.226	66.6504	104.141	66.6504	104.202	66.6504	104.111	66.6504	104.177	66.6504	104.082	66.6504	104.149	66.6504	104.055	66.6504	104.122	66.6504	104.031	66.6504	104.095	66.6504	104.012	66.6504	104.07	66.6504	103.997	66.6504	104.049	66.6504	103.986	66.6504	104.031	66.6504	103.98	66.6504	104.016	66.6504	103.977	66.6504	104.004	66.6504	103.976	66.6504	103.994	66.6504	103.978	66.6504	103.987	66.6504	103.982
69.5801	104.131	69.5801	104.12	69.5801	104.135	69.5801	104.103	69.5801	104.132	69.5801	104.08	69.5801	104.122	69.5801	104.052	69.5801	104.107	69.5801	104.021	69.5801	104.086	69.5801	103.988	69.5801	104.06	69.5801	103.955	69.5801	104.032	69.5801	103.922	69.5801	104.003	69.5801	103.892	69.5801	103.973	69.5801	103.866	69.5801	103.944	69.5801	103.845	69.5801	103.917	69.5801	103.828	69.5801	103.894	69.5801	103.817	69.5801	103.873	69.5801	103.811	69.5801	103.857	69.5801	103.808	69.5801	103.843	69.5801	103.809	69.5801	103.832	69.5801	103.812	69.5801	103.824	69.5801	103.817
71.7773	103.993	71.7773	103.982	71.7773	103.996	71.7773	103.964	71.7773	103.993	71.7773	103.94	71.7773	103.983	71.7773	103.912	71.7773	103.966	71.7773	103.879	71.7773	103.943	71.7773	103.845	71.7773	103.917	71.7773	103.81	71.7773	103.887	71.7773	103.776	71.7773	103.856	71.7773	103.745	71.7773	103.825	71.7773	103.718	71.7773	103.795	71.7773	103.696	71.7773	103.768	71.7773	103.679	71.7773	103.744	71.7773	103.668	71.7773	103.724	71.7773	103.661	71.7773	103.707	71.7773	103.659	71.7773	103.694	71.7773	103.66	71.7773	103.683	71.7773	103.663	71.7773	103.675	71.7773	103.668
73.9746	103.779	73.9746	103.767	73.9746	103.783	73.9746	103.749	73.9746	103.781	73.9746	103.724	73.9746	103.771	73.9746	103.695	73.9746	103.755	73.9746	103.662	73.9746	103.734	73.9746	103.627	73.9746	103.708	73.9746	103.591	73.9746	103.68	73.9746	103.558	73.9746	103.65	73.9746	103.527	73.9746	103.621	73.9746	103.502	73.9746	103.593	73.9746	103.481	73.9746	103.568	73.9746	103.467	73.9746	103.546	73.9746	103.458	73.9746	103.528	73.9746	103.455	73.9746	103.513	73.9746	103.456	73.9746	103.5	73.9746	103.46	73.9746	103.49	73.9746	103.466	73.9746	103.481	73.9746	103.473
76.9043	103.555	76.9043	103.544	76.9043	103.559	76.9043	103.525	76.9043	103.556	76.9043	103.5	76.9043	103.545	76.9043	103.469	76.9043	103.527	76.9043	103.435	76.9043	103.503	76.9043	103.399	76.9043	103.475	76.9043	103.363	76.9043	103.445	76.9043	103.328	76.9043	103.413	76.9043	103.297	76.9043	103.382	76.9043	103.27	76.9043	103.352	76.9043	103.25	76.9043	103.326	76.9043	103.235	76.9043	103.303	76.9043	103.226	76.9043	103.285	76.9043	103.222	76.9043	103.27	76.9043	103.222	76.9043	103.259	76.9043	103.225	76.9043	103.25	76.9043	103.23	76.9043	103.242	76.9043	103.236
79.834	103.372	79.834	103.36	79.834	103.376	79.834	103.34	79.834	103.372	79.834	103.314	79.834	103.36	79.834	103.282	79.834	103.34	79.834	103.246	79.834	103.315	79.834	103.208	79.834	103.286	79.834	103.171	79.834	103.254	79.834	103.135	79.834	103.222	79.834	103.104	79.834	103.19	79.834	103.078	79.834	103.161	79.834	103.059	79.834	103.136	79.834	103.047	79.834	103.116	79.834	103.04	79.834	103.1	79.834	103.039	79.834	103.088	79.834	103.042	79.834	103.079	79.834	103.047	79.834	103.072	79.834	103.054	79.834	103.066	79.834	103.06
82.7637	103.313	82.7637	103.301	82.7637	103.315	82.7637	103.281	82.7637	103.308	82.7637	103.253	82.7637	103.292	82.7637	103.219	82.7637	103.268	82.7637	103.18	82.7637	103.238	82.7637	103.139	82.7637	103.203	82.7637	103.098	82.7637	103.165	82.7637	103.059	82.7637	103.126	82.7637	103.024	82.7637	103.089	82.7637	102.995	82.7637	103.055	82.7637	102.972	82.7637	103.026	82.7637	102.956	82.7637	103.002	82.7637	102.947	82.7637	102.985	82.7637	102.943	82.7637	102.972	82.7637	102.942	82.7637	102.964	82.7637	102.945	82.7637	102.959	82.7637	102.948	82.7637	102.955	82.7637	102.951
85.6934	103.277	85.6934	103.262	85.6934	103.282	85.6934	103.238	85.6934	103.276	85.6934	103.205	85.6934	103.26	85.6934	103.165	85.6934	103.235	85.6934	103.12	85.6934	103.202	85.6934	103.072	85.6934	103.163	85.6934	103.024	85.6934	103.12	85.6934	102.978	85.6934	103.076	85.6934	102.936	85.6934	103.032	85.6934	102.9	85.6934	102.991	85.6934	102.871	85.6934	102.954	85.6934	102.85	85.6934	102.923	85.6934	102.837	85.6934	102.897	85.6934	102.829	85.6934	102.878	85.6934	102.827	85.6934	102.863	85.6934	102.829	85.6934	102.852	85.6934	102.832	85.6934	102.844	85.6934	102.838
88.623	103.307	88.623	103.291	88.623	103.312	88.623	103.265	88.623	103.307	88.623	103.23	88.623	103.291	88.623	103.189	88.623	103.266	88.623	103.142	88.623	103.232	88.623	103.092	88.623	103.192	88.623	103.041	88.623	103.148	88.623	102.993	88.623	103.101	88.623	102.949	88.623	103.054	88.623	102.91	88.623	103.009	88.623	102.879	88.623	102.969	88.623	102.855	88.623	102.934	88.623	102.839	88.623	102.905	88.623	102.83	88.623	102.882	88.623	102.826	88.623	102.864	88.623	102.826	88.623	102.851	88.623	102.829	88.623	102.841	88.623	102.834
91.5527	103.314	91.5527	103.296	91.5527	103.323	91.5527	103.27	91.5527	103.322	91.5527	103.236	91.5527	103.313	91.5527	103.197	91.5527	103.296	91.5527	103.155	91.5527	103.271	91.5527	103.111	91.5527	103.242	91.5527	103.067	91.5527	103.208	91.5527	103.028	91.5527	103.174	91.5527	102.994	91.5527	103.139	91.5527	102.967	91.5527	103.107	91.5527	102.948	91.5527	103.078	91.5527	102.936	91.5527	103.053	91.5527	102.933	91.5527	103.033	91.5527	102.935	91.5527	103.017	91.5527	102.941	91.5527	103.003	91.5527	102.951	91.5527	102.992	91.5527	102.961	91.5527	102.982	91.5527	102.971
94.4824	103.085	94.4824	103.062	94.4824	103.1	94.4824	103.03	94.4824	103.106	94.4824	102.991	94.4824	103.103	94.4824	102.948	94.4824	103.091	94.4824	102.904	94.4824	103.074	94.4824	102.861	94.4824	103.052	94.4824	102.822	94.4824	103.028	94.4824	102.791	94.4824	103.005	94.4824	102.769	94.4824	102.983	94.4824	102.757	94.4824	102.965	94.4824	102.757	94.4824	102.952	94.4824	102.767	94.4824	102.943	94.4824	102.785	94.4824	102.938	94.4824	102.809	94.4824	102.935	94.4824	102.836	94.4824	102.932	94.4824	102.863	94.4824	102.927	94.4824	102.886	94.4824	102.919	94.4824	102.905
98.1445	103.468	98.1445	103.447	98.1445	103.475	98.1445	103.414	98.1445	103.47	98.1445	103.371	98.1445	103.453	98.1445	103.318	98.1445	103.425	98.1445	103.26	98.1445	103.387	98.1445	103.199	98.1445	103.343	98.1445	103.138	98.1445	103.295	98.1445	103.081	98.1445	103.246	98.1445	103.032	98.1445	103.198	98.1445	102.992	98.1445	103.155	98.1445	102.964	98.1445	103.117	98.1445	102.947	98.1445	103.086	98.1445	102.942	98.1445	103.062	98.1445	102.945	98.1445	103.044	98.1445	102.954	98.1445	103.03	98.1445	102.967	98.1445	103.018	98.1445	102.981	98.1445	103.007	98.1445	102.995
101.807	103.565	101.807	103.545	101.807	103.573	101.807	103.513	101.807	103.568	101.807	103.47	101.807	103.551	101.807	103.418	101.807	103.524	101.807	103.36	101.807	103.488	101.807	103.3	101.807	103.446	101.807	103.24	101.807	103.401	101.807	103.184	101.807	103.355	101.807	103.135	101.807	103.31	101.807	103.097	101.807	103.27	101.807	103.07	101.807	103.236	101.807	103.055	101.807	103.207	101.807	103.051	101.807	103.185	101.807	103.056	101.807	103.168	101.807	103.068	101.807	103.155	101.807	103.084	101.807	103.143	101.807	103.1	101.807	103.13	101.807	103.116
105.469	103.684	105.469	103.662	105.469	103.693	105.469	103.628	105.469	103.689	105.469	103.583	105.469	103.672	105.469	103.529	105.469	103.645	105.469	103.468	105.469	103.609	105.469	103.406	105.469	103.566	105.469	103.344	105.469	103.521	105.469	103.288	105.469	103.475	105.469	103.239	105.469	103.431	105.469	103.202	105.469	103.393	105.469	103.176	105.469	103.36	105.469	103.164	105.469	103.334	105.469	103.163	105.469	103.314	105.469	103.171	105.469	103.298	105.469	103.187	105.469	103.285	105.469	103.206	105.469	103.273	105.469	103.225	105.469	103.259	105.469	103.243
109.131	103.859	109.131	103.837	109.131	103.867	109.131	103.803	109.131	103.861	109.131	103.757	109.131	103.842	109.131	103.702	109.131	103.812	109.131	103.641	109.131	103.773	109.131	103.577	109.131	103.728	109.131	103.515	109.131	103.68	109.131	103.459	109.131	103.633	109.131	103.411	109.131	103.589	109.131	103.376	109.131	103.55	109.131	103.353	109.131	103.52	109.131	103.344	109.131	103.497	109.131	103.347	109.131	103.481	109.131	103.359	109.131	103.471	109.131	103.377	109.131	103.464	109.131	103.397	109.131	103.456	109.131	103.417	109.131	103.447	109.131	103.434
112.793	104.046	112.793	104.027	112.793	104.051	112.793	103.994	112.793	104.04	112.793	103.949	112.793	104.016	112.793	103.893	112.793	103.98	112.793	103.831	112.793	103.934	112.793	103.766	112.793	103.881	112.793	103.701	112.793	103.826	112.793	103.641	112.793	103.771	112.793	103.59	112.793	103.72	112.793	103.55	112.793	103.676	112.793	103.523	112.793	103.641	112.793	103.509	112.793	103.616	112.793	103.507	112.793	103.599	112.793	103.514	112.793	103.59	112.793	103.527	112.793	103.585	112.793	103.542	112.793	103.581	112.793	103.557	112.793	103.576	112.793	103.568
116.455	104.179	116.455	104.155	116.455	104.188	116.455	104.117	116.455	104.182	116.455	104.067	116.455	104.163	116.455	104.009	116.455	104.13	116.455	103.944	116.455	104.089	116.455	103.878	116.455	104.04	116.455	103.814	116.455	103.988	116.455	103.758	116.455	103.937	116.455	103.712	116.455	103.89	116.455	103.679	116.455	103.85	116.455	103.661	116.455	103.819	116.455	103.657	116.455	103.797	116.455	103.664	116.455	103.784	116.455	103.681	116.455	103.777	116.455	103.702	116.455	103.774	116.455	103.723	116.455	103.772	116.455	103.743	116.455	103.767	116.455	103.757
120.85	104.415	120.85	104.394	120.85	104.419	120.85	104.357	120.85	104.406	120.85	104.305	120.85	104.377	120.85	104.241	120.85	104.334	120.85	104.169	120.85	104.28	120.85	104.094	120.85	104.219	120.85	104.021	120.85	104.155	120.85	103.953	120.85	104.093	120.85	103.897	120.85	104.036	120.85	103.854	120.85	103.989	120.85	103.826	120.85	103.952	120.85	103.815	120.85	103.928	120.85	103.817	120.85	103.914	120.85	103.829	120.85	103.909	120.85	103.847	120.85	103.908	120.85	103.867	120.85	103.908	120.85	103.885	120.85	103.906	120.85	103.898
125.244	104.61	125.244	104.582	125.244	104.619	125.244	104.537	125.244	104.609	125.244	104.476	125.244	104.582	125.244	104.404	125.244	104.538	125.244	104.323	125.244	104.482	125.244	104.239	125.244	104.416	125.244	104.158	125.244	104.345	125.244	104.084	125.244	104.273	125.244	104.022	125.244	104.207	125.244	103.975	125.244	104.148	125.244	103.945	125.244	104.101	125.244	103.932	125.244	104.066	125.244	103.934	125.244	104.044	125.244	103.946	125.244	104.032	125.244	103.964	125.244	104.026	125.244	103.983	125.244	104.024	125.244	104	125.244	104.02	125.244	104.013
129.639	104.759	129.639	104.72	129.639	104.779	129.639	104.664	129.639	104.782	129.639	104.592	129.639	104.768	129.639	104.509	129.639	104.738	129.639	104.418	129.639	104.696	129.639	104.324	129.639	104.644	129.639	104.233	129.639	104.587	129.639	104.15	129.639	104.529	129.639	104.082	129.639	104.473	129.639	104.033	129.639	104.422	129.639	104.004	129.639	104.378	129.639	103.997	129.639	104.343	129.639	104.009	129.639	104.315	129.639	104.037	129.639	104.292	129.639	104.074	129.639	104.272	129.639	104.116	129.639	104.25	129.639	104.157	129.639	104.225	129.639	104.194
134.033	104.732	134.033	104.717	134.033	104.73	134.033	104.685	134.033	104.712	134.033	104.64	134.033	104.679	134.033	104.582	134.033	104.634	134.033	104.515	134.033	104.58	134.033	104.444	134.033	104.522	134.033	104.374	134.033	104.463	134.033	104.309	134.033	104.408	134.033	104.254	134.033	104.361	134.033	104.213	134.033	104.325	134.033	104.187	134.033	104.301	134.033	104.178	134.033	104.289	134.033	104.183	134.033	104.286	134.033	104.199	134.033	104.29	134.033	104.223	134.033	104.295	134.033	104.248	134.033	104.299	134.033	104.27	134.033	104.297	134.033	104.287
138.428	104.852	138.428	104.831	138.428	104.855	138.428	104.793	138.428	104.84	138.428	104.74	138.428	104.808	138.428	104.678	138.428	104.762	138.428	104.609	138.428	104.705	138.428	104.541	138.428	104.641	138.428	104.478	138.428	104.578	138.428	104.426	138.428	104.518	138.428	104.388	138.428	104.469	138.428	104.368	138.428	104.434	138.428	104.365	138.428	104.415	138.428	104.377	138.428	104.411	138.428	104.402	138.428	104.422	138.428	104.433	138.428	104.443	138.428	104.464	138.428	104.467	138.428	104.491	138.428	104.491	138.428	104.508	138.428	104.507	138.428	104.514
143.555	105.104	143.555	105.069	143.555	105.117	143.555	105.011	143.555	105.108	143.555	104.935	143.555	105.078	143.555	104.844	143.555	105.03	143.555	104.745	143.555	104.968	143.555	104.643	143.555	104.898	143.555	104.548	143.555	104.827	143.555	104.466	143.555	104.759	143.555	104.405	143.555	104.701	143.555	104.37	143.555	104.657	143.555	104.361	143.555	104.63	143.555	104.378	143.555	104.619	143.555	104.416	143.555	104.622	143.555	104.466	143.555	104.634	143.555	104.522	143.555	104.648	143.555	104.574	143.555	104.659	143.555	104.617	143.555	104.659	143.555	104.646
148.682	105.231	148.682	105.203	148.682	105.236	148.682	105.151	148.682	105.217	148.682	105.078	148.682	105.177	148.682	104.99	148.682	105.117	148.682	104.89	148.682	105.042	148.682	104.785	148.682	104.959	148.682	104.682	148.682	104.872	148.682	104.589	148.682	104.789	148.682	104.513	148.682	104.717	148.682	104.459	148.682	104.659	148.682	104.43	148.682	104.619	148.682	104.425	148.682	104.597	148.682	104.442	148.682	104.592	148.682	104.473	148.682	104.597	148.682	104.512	148.682	104.607	148.682	104.551	148.682	104.615	148.682	104.584	148.682	104.616	148.682	104.606
153.809	105.329	153.809	105.3	153.809	105.333	153.809	105.249	153.809	105.313	153.809	105.177	153.809	105.271	153.809	105.089	153.809	105.21	153.809	104.989	153.809	105.135	153.809	104.885	153.809	105.051	153.809	104.784	153.809	104.965	153.809	104.694	153.809	104.884	153.809	104.621	153.809	104.813	153.809	104.572	153.809	104.76	153.809	104.548	153.809	104.725	153.809	104.55	153.809	104.709	153.809	104.572	153.809	104.71	153.809	104.609	153.809	104.723	153.809	104.653	153.809	104.739	153.809	104.695	153.809	104.753	153.809	104.729	153.809	104.758	153.809	104.751
159.668	105.478	159.668	105.449	159.668	105.48	159.668	105.396	159.668	105.457	159.668	105.319	159.668	105.409	159.668	105.226	159.668	105.34	159.668	105.12	159.668	105.255	159.668	105.01	159.668	105.162	159.668	104.904	159.668	105.066	159.668	104.811	159.668	104.977	159.668	104.738	159.668	104.901	159.668	104.691	159.668	104.844	159.668	104.672	159.668	104.811	159.668	104.681	159.668	104.801	159.668	104.711	159.668	104.81	159.668	104.755	159.668	104.833	159.668	104.804	159.668	104.862	159.668	104.849	159.668	104.887	159.668	104.883	159.668	104.902	159.668	104.901
164.795	105.713	164.795	105.688	164.795	105.71	164.795	105.635	164.795	105.678	164.795	105.556	164.795	105.619	164.795	105.457	164.795	105.538	164.795	105.342	164.795	105.438	164.795	105.218	164.795	105.327	164.795	105.095	164.795	105.212	164.795	104.981	164.795	105.101	164.795	104.885	164.795	105.003	164.795	104.813	164.795	104.925	164.795	104.77	164.795	104.872	164.795	104.756	164.795	104.845	164.795	104.767	164.795	104.84	164.795	104.796	164.795	104.853	164.795	104.833	164.795	104.875	164.795	104.869	164.795	104.897	164.795	104.897	164.795	104.911	164.795	104.911
170.654	105.743	170.654	105.714	170.654	105.745	170.654	105.657	170.654	105.719	170.654	105.577	170.654	105.667	170.654	105.477	170.654	105.592	170.654	105.362	170.654	105.5	170.654	105.239	170.654	105.395	170.654	105.117	170.654	105.285	170.654	105.005	170.654	105.177	170.654	104.909	170.654	105.081	170.654	104.838	170.654	105.002	170.654	104.794	170.654	104.945	170.654	104.778	170.654	104.911	170.654	104.787	170.654	104.898	170.654	104.813	170.654	104.902	170.654	104.848	170.654	104.914	170.654	104.883	170.654	104.927	170.654	104.912	170.654	104.934	170.654	104.93
176.514	105.687	176.514	105.661	176.514	105.684	176.514	105.608	176.514	105.653	176.514	105.532	176.514	105.597	176.514	105.436	176.514	105.518	176.514	105.327	176.514	105.423	176.514	105.212	176.514	105.318	176.514	105.1	176.514	105.211	176.514	105	176.514	105.111	176.514	104.92	176.514	105.026	176.514	104.865	176.514	104.963	176.514	104.839	176.514	104.925	176.514	104.839	176.514	104.912	176.514	104.862	176.514	104.922	176.514	104.9	176.514	104.946	176.514	104.944	176.514	104.977	176.514	104.984	176.514	105.006	176.514	105.014	176.514	105.024	176.514	105.027
183.105	105.7	183.105	105.675	183.105	105.695	183.105	105.62	183.105	105.66	183.105	105.539	183.105	105.596	183.105	105.438	183.105	105.508	183.105	105.324	183.105	105.401	183.105	105.204	183.105	105.283	183.105	105.089	183.105	105.163	183.105	104.989	183.105	105.052	183.105	104.911	183.105	104.96	183.105	104.862	183.105	104.893	183.105	104.844	183.105	104.857	183.105	104.854	183.105	104.852	183.105	104.887	183.105	104.873	183.105	104.934	183.105	104.913	183.105	104.982	183.105	104.961	183.105	105.024	183.105	105.006	183.105	105.05	183.105	105.04	183.105	105.055
189.697	105.843	189.697	105.812	189.697	105.841	189.697	105.75	189.697	105.806	189.697	105.662	189.697	105.742	189.697	105.551	189.697	105.65	189.697	105.427	189.697	105.538	189.697	105.298	189.697	105.413	189.697	105.174	189.697	105.285	189.697	105.067	189.697	105.164	189.697	104.986	189.697	105.062	189.697	104.938	189.697	104.987	189.697	104.923	189.697	104.944	189.697	104.941	189.697	104.936	189.697	104.982	189.697	104.958	189.697	105.036	189.697	105.002	189.697	105.092	189.697	105.056	189.697	105.138	189.697	105.108	189.697	105.165	189.697	105.148	189.697	105.168
196.289	105.908	196.289	105.868	196.289	105.911	196.289	105.795	196.289	105.878	196.289	105.691	196.289	105.812	196.289	105.563	196.289	105.716	196.289	105.419	196.289	105.598	196.289	105.271	196.289	105.466	196.289	105.13	196.289	105.331	196.289	105.009	196.289	105.205	196.289	104.92	196.289	105.099	196.289	104.869	196.289	105.022	196.289	104.86	196.289	104.982	196.289	104.889	196.289	104.977	196.289	104.947	196.289	105.004	196.289	105.02	196.289	105.052	196.289	105.094	196.289	105.11	196.289	105.157	196.289	105.163	196.289	105.199	196.289	105.2	196.289	105.214
202.881	106.014	202.881	105.969	202.881	106.02	202.881	105.887	202.881	105.989	202.881	105.772	202.881	105.921	202.881	105.63	202.881	105.821	202.881	105.47	202.881	105.696	202.881	105.302	202.881	105.554	202.881	105.141	202.881	105.406	202.881	104.998	202.881	105.263	202.881	104.888	202.881	105.139	202.881	104.82	202.881	105.044	202.881	104.797	202.881	104.985	202.881	104.816	202.881	104.964	202.881	104.869	202.881	104.977	202.881	104.941	202.881	105.015	202.881	105.018	202.881	105.064	202.881	105.085	202.881	105.111	202.881	105.131	202.881	105.143	202.881	105.151
210.205	106.064	210.205	106.021	210.205	106.066	210.205	105.94	210.205	106.029	210.205	105.822	210.205	105.955	210.205	105.674	210.205	105.85	210.205	105.503	210.205	105.72	210.205	105.321	210.205	105.574	210.205	105.142	210.205	105.424	210.205	104.98	210.205	105.282	210.205	104.85	210.205	105.16	210.205	104.765	210.205	105.069	210.205	104.731	210.205	105.015	210.205	104.746	210.205	104.998	210.205	104.802	210.205	105.014	210.205	104.883	210.205	105.051	210.205	104.974	210.205	105.097	210.205	105.056	210.205	105.137	210.205	105.119	210.205	105.158	210.205	105.154
217.529	106.092	217.529	106.053	217.529	106.091	217.529	105.975	217.529	106.05	217.529	105.861	217.529	105.973	217.529	105.714	217.529	105.864	217.529	105.543	217.529	105.73	217.529	105.358	217.529	105.58	217.529	105.172	217.529	105.424	217.529	105.001	217.529	105.275	217.529	104.86	217.529	105.147	217.529	104.763	217.529	105.049	217.529	104.717	217.529	104.989	217.529	104.723	217.529	104.969	217.529	104.774	217.529	104.984	217.529	104.853	217.529	105.022	217.529	104.944	217.529	105.069	217.529	105.029	217.529	105.111	217.529	105.094	217.529	105.134	217.529	105.13
225.586	106.199	225.586	106.171	225.586	106.185	225.586	106.1	225.586	106.128	225.586	105.991	225.586	106.033	225.586	105.847	225.586	105.903	225.586	105.677	225.586	105.747	225.586	105.489	225.586	105.575	225.586	105.297	225.586	105.4	225.586	105.116	225.586	105.236	225.586	104.962	225.586	105.098	225.586	104.851	225.586	104.998	225.586	104.791	225.586	104.943	225.586	104.786	225.586	104.934	225.586	104.827	225.586	104.963	225.586	104.901	225.586	105.017	225.586	104.99	225.586	105.08	225.586	105.073	225.586	105.135	225.586	105.136	225.586	105.167	225.586	105.169
232.91	106.38	232.91	106.349	232.91	106.367	232.91	106.275	232.91	106.308	232.91	106.164	232.91	106.207	232.91	106.019	232.91	106.065	232.91	105.847	232.91	105.89	232.91	105.658	232.91	105.691	232.91	105.462	232.91	105.481	232.91	105.274	232.91	105.277	232.91	105.106	232.91	105.096	232.91	104.974	232.91	104.956	232.91	104.887	232.91	104.868	232.91	104.851	232.91	104.835	232.91	104.86	232.91	104.851	232.91	104.905	232.91	104.903	232.91	104.968	232.91	104.971	232.91	105.03	232.91	105.035	232.91	105.076	232.91	105.08	232.91	105.094
241.699	106.203	241.699	106.157	241.699	106.204	241.699	106.071	241.699	106.162	241.699	105.947	241.699	106.076	241.699	105.793	241.699	105.952	241.699	105.617	241.699	105.795	241.699	105.429	241.699	105.614	241.699	105.241	241.699	105.421	241.699	105.065	241.699	105.228	241.699	104.913	241.699	105.051	241.699	104.796	241.699	104.903	241.699	104.72	241.699	104.794	241.699	104.684	241.699	104.728	241.699	104.684	241.699	104.705	241.699	104.711	241.699	104.715	241.699	104.75	241.699	104.746	241.699	104.789	241.699	104.782	241.699	104.816	241.699	104.811	241.699	104.824
249.756	106.311	249.756	106.267	249.756	106.307	249.756	106.179	249.756	106.256	249.756	106.052	249.756	106.157	249.756	105.896	249.756	106.016	249.756	105.718	249.756	105.838	249.756	105.531	249.756	105.635	249.756	105.347	249.756	105.42	249.756	105.179	249.756	105.209	249.756	105.037	249.756	105.02	249.756	104.93	249.756	104.869	249.756	104.862	249.756	104.765	249.756	104.831	249.756	104.712	249.756	104.83	249.756	104.705	249.756	104.851	249.756	104.734	249.756	104.88	249.756	104.783	249.756	104.905	249.756	104.836	249.756	104.917	249.756	104.882	249.756	104.91
258.545	106.236	258.545	106.175	258.545	106.251	258.545	106.073	258.545	106.222	258.545	105.933	258.545	106.15	258.545	105.766	258.545	106.041	258.545	105.581	258.545	105.9	258.545	105.392	258.545	105.739	258.545	105.217	258.545	105.57	258.545	105.07	258.545	105.408	258.545	104.964	258.545	105.267	258.545	104.909	258.545	105.161	258.545	104.904	258.545	105.096	258.545	104.942	258.545	105.076	258.545	105.012	258.545	105.094	258.545	105.097	258.545	105.139	258.545	105.18	258.545	105.196	258.545	105.249	258.545	105.252	258.545	105.293	258.545	105.292	258.545	105.307
268.066	106.056	268.066	106	268.066	106.062	268.066	105.896	268.066	106.018	268.066	105.75	268.066	105.925	268.066	105.57	268.066	105.79	268.066	105.368	268.066	105.62	268.066	105.159	268.066	105.426	268.066	104.96	268.066	105.224	268.066	104.788	268.066	105.031	268.066	104.66	268.066	104.865	268.066	104.586	268.066	104.745	268.066	104.568	268.066	104.679	268.066	104.601	268.066	104.67	268.066	104.672	268.066	104.71	268.066	104.764	268.066	104.781	268.066	104.859	268.066	104.864	268.066	104.939	268.066	104.94	268.066	104.993	268.066	104.992	268.066	105.011
277.588	106.067	277.588	106.026	277.588	106.053	277.588	105.93	277.588	105.988	277.588	105.784	277.588	105.879	277.588	105.596	277.588	105.736	277.588	105.382	277.588	105.573	277.588	105.162	277.588	105.404	277.588	104.959	277.588	105.247	277.588	104.797	277.588	105.117	277.588	104.698	277.588	105.026	277.588	104.671	277.588	104.984	277.588	104.715	277.588	104.992	277.588	104.816	277.588	105.044	277.588	104.952	277.588	105.127	277.588	105.1	277.588	105.226	277.588	105.238	277.588	105.323	277.588	105.351	277.588	105.403	277.588	105.428	277.588	105.452	277.588	105.461
287.109	106.004	287.109	105.975	287.109	105.968	287.109	105.881	287.109	105.871	287.109	105.725	287.109	105.721	287.109	105.514	287.109	105.529	287.109	105.26	287.109	105.313	287.109	104.981	287.109	105.094	287.109	104.706	287.109	104.898	287.109	104.466	287.109	104.749	287.109	104.298	287.109	104.666	287.109	104.228	287.109	104.657	287.109	104.265	287.109	104.718	287.109	104.398	287.109	104.832	287.109	104.594	287.109	104.977	287.109	104.818	287.109	105.128	287.109	105.033	287.109	105.263	287.109	105.213	287.109	105.363	287.109	105.341	287.109	105.415	287.109	105.409
297.363	106.049	297.363	106.035	297.363	105.993	297.363	105.957	297.363	105.865	297.363	105.82	297.363	105.665	297.363	105.635	297.363	105.399	297.363	105.411	297.363	105.079	297.363	105.164	297.363	104.729	297.363	104.913	297.363	104.385	297.363	104.681	297.363	104.092	297.363	104.493	297.363	103.898	297.363	104.372	297.363	103.834	297.363	104.335	297.363	103.905	297.363	104.383	297.363	104.085	297.363	104.502	297.363	104.327	297.363	104.665	297.363	104.584	297.363	104.839	297.363	104.816	297.363	104.992	297.363	104.995	297.363	105.098	297.363	105.105	297.363	105.138
307.617	105.849	307.617	105.786	307.617	105.843	307.617	105.66	307.617	105.763	307.617	105.478	307.617	105.609	307.617	105.252	307.617	105.381	307.617	104.997	307.617	105.084	307.617	104.735	307.617	104.734	307.617	104.492	307.617	104.355	307.617	104.297	307.617	103.987	307.617	104.175	307.617	103.684	307.617	104.143	307.617	103.5	307.617	104.201	307.617	103.471	307.617	104.333	307.617	103.597	307.617	104.513	307.617	103.842	307.617	104.705	307.617	104.147	307.617	104.877	307.617	104.455	307.617	105.002	307.617	104.723	307.617	105.059	307.617	104.92	307.617	105.033
318.604	105.94	318.604	105.857	318.604	105.948	318.604	105.702	318.604	105.879	318.604	105.477	318.604	105.734	318.604	105.193	318.604	105.514	318.604	104.861	318.604	105.224	318.604	104.503	318.604	104.874	318.604	104.15	318.604	104.483	318.604	103.84	318.604	104.084	318.604	103.615	318.604	103.722	318.604	103.51	318.604	103.45	318.604	103.536	318.604	103.317	318.604	103.676	318.604	103.342	318.604	103.89	318.604	103.507	318.604	104.131	318.604	103.762	318.604	104.351	318.604	104.044	318.604	104.516	318.604	104.299	318.604	104.601	318.604	104.49	318.604	104.594
329.59	105.979	329.59	105.897	329.59	105.989	329.59	105.744	329.59	105.928	329.59	105.522	329.59	105.796	329.59	105.237	329.59	105.598	329.59	104.898	329.59	105.337	329.59	104.521	329.59	105.022	329.59	104.132	329.59	104.668	329.59	103.769	329.59	104.299	329.59	103.475	329.59	103.95	329.59	103.295	329.59	103.664	329.59	103.253	329.59	103.483	329.59	103.346	329.59	103.432	329.59	103.539	329.59	103.508	329.59	103.778	329.59	103.678	329.59	104.012	329.59	103.89	329.59	104.197	329.59	104.094	329.59	104.305	329.59	104.247	329.59	104.321
341.309	105.847	341.309	105.796	341.309	105.816	341.309	105.665	341.309	105.702	341.309	105.458	341.309	105.506	341.309	105.183	341.309	105.234	341.309	104.849	341.309	104.894	341.309	104.475	341.309	104.503	341.309	104.088	341.309	104.088	341.309	103.725	341.309	103.689	341.309	103.431	341.309	103.356	341.309	103.245	341.309	103.141	341.309	103.195	341.309	103.078	341.309	103.277	341.309	103.169	341.309	103.461	341.309	103.377	341.309	103.701	341.309	103.647	341.309	103.946	341.309	103.918	341.309	104.153	341.309	104.142	341.309	104.291	341.309	104.288	341.309	104.339
353.76	106.033	353.76	105.945	353.76	106.04	353.76	105.779	353.76	105.963	353.76	105.542	353.76	105.797	353.76	105.239	353.76	105.542	353.76	104.882	353.76	105.198	353.76	104.485	353.76	104.772	353.76	104.077	353.76	104.28	353.76	103.692	353.76	103.754	353.76	103.379	353.76	103.245	353.76	103.18	353.76	102.826	353.76	103.124	353.76	102.57	353.76	103.206	353.76	102.524	353.76	103.386	353.76	102.675	353.76	103.611	353.76	102.962	353.76	103.825	353.76	103.3	353.76	103.981	353.76	103.618	353.76	104.049	353.76	103.864	353.76	104.011
366.211	105.946	366.211	105.798	366.211	106.012	366.211	105.572	366.211	105.995	366.211	105.272	366.211	105.893	366.211	104.906	366.211	105.705	366.211	104.488	366.211	105.433	366.211	104.038	366.211	105.083	366.211	103.592	366.211	104.666	366.211	103.193	366.211	104.208	366.211	102.896	366.211	103.747	366.211	102.744	366.211	103.338	366.211	102.757	366.211	103.042	366.211	102.913	366.211	102.906	366.211	103.163	366.211	102.939	366.211	103.441	366.211	103.107	366.211	103.69	366.211	103.35	366.211	103.869	366.211	103.601	366.211	103.952	366.211	103.806	366.211	103.929
378.662	106.036	378.662	105.897	378.662	106.085	378.662	105.666	378.662	106.047	378.662	105.34	378.662	105.924	378.662	104.92	378.662	105.718	378.662	104.413	378.662	105.433	378.662	103.837	378.662	105.075	378.662	103.229	378.662	104.661	378.662	102.653	378.662	104.221	378.662	102.195	378.662	103.802	378.662	101.948	378.662	103.465	378.662	101.962	378.662	103.267	378.662	102.216	378.662	103.238	378.662	102.625	378.662	103.361	378.662	103.088	378.662	103.581	378.662	103.52	378.662	103.828	378.662	103.865	378.662	104.04	378.662	104.094	378.662	104.172	378.662	104.195
392.578	105.894	392.578	105.841	392.578	105.864	392.578	105.704	392.578	105.752	392.578	105.479	392.578	105.56	392.578	105.166	392.578	105.285	392.578	104.766	392.578	104.927	392.578	104.29	392.578	104.486	392.578	103.761	392.578	103.974	392.578	103.222	392.578	103.416	392.578	102.737	392.578	102.863	392.578	102.381	392.578	102.4	392.578	102.218	392.578	102.122	392.578	102.264	392.578	102.091	392.578	102.481	392.578	102.292	392.578	102.794	392.578	102.638	392.578	103.123	392.578	103.018	392.578	103.402	392.578	103.344	392.578	103.584	392.578	103.56	392.578	103.642
405.762	106	405.762	105.915	405.762	105.996	405.762	105.735	405.762	105.906	405.762	105.458	405.762	105.734	405.762	105.081	405.762	105.483	405.762	104.607	405.762	105.156	405.762	104.048	405.762	104.756	405.762	103.432	405.762	104.292	405.762	102.818	405.762	103.78	405.762	102.292	405.762	103.255	405.762	101.958	405.762	102.778	405.762	101.887	405.762	102.427	405.762	102.07	405.762	102.275	405.762	102.424	405.762	102.347	405.762	102.836	405.762	102.599	405.762	103.214	405.762	102.938	405.762	103.496	405.762	103.27	405.762	103.648	405.762	103.524	405.762	103.656
420.41	105.968	420.41	105.914	420.41	105.936	420.41	105.769	420.41	105.819	420.41	105.53	420.41	105.619	420.41	105.19	420.41	105.338	420.41	104.743	420.41	104.977	420.41	104.19	420.41	104.543	420.41	103.542	420.41	104.045	420.41	102.841	420.41	103.507	420.41	102.167	420.41	102.967	420.41	101.645	420.41	102.489	420.41	101.403	420.41	102.15	420.41	101.49	420.41	102.018	420.41	101.834	420.41	102.108	420.41	102.293	420.41	102.367	420.41	102.738	420.41	102.702	420.41	103.086	420.41	103.019	420.41	103.294	420.41	103.249	420.41	103.347
435.059	105.714	435.059	105.664	435.059	105.675	435.059	105.523	435.059	105.548	435.059	105.288	435.059	105.335	435.059	104.955	435.059	105.037	435.059	104.522	435.059	104.655	435.059	103.993	435.059	104.198	435.059	103.385	435.059	103.677	435.059	102.737	435.059	103.121	435.059	102.121	435.059	102.578	435.059	101.646	435.059	102.122	435.059	101.424	435.059	101.838	435.059	101.503	435.059	101.785	435.059	101.829	435.059	101.96	435.059	102.281	435.059	102.292	435.059	102.734	435.059	102.679	435.059	103.097	435.059	103.03	435.059	103.319	435.059	103.276	435.059	103.379
450.439	105.726	450.439	105.68	450.439	105.671	450.439	105.533	450.439	105.519	450.439	105.28	450.439	105.272	450.439	104.916	450.439	104.93	450.439	104.435	450.439	104.5	450.439	103.834	450.439	103.992	450.439	103.118	450.439	103.425	450.439	102.312	450.439	102.837	450.439	101.487	450.439	102.285	450.439	100.777	450.439	101.846	450.439	100.368	450.439	101.598	450.439	100.39	450.439	101.578	450.439	100.793	450.439	101.761	450.439	101.39	450.439	102.07	450.439	101.99	450.439	102.41	450.439	102.474	450.439	102.7	450.439	102.788	450.439	102.884	450.439	102.921
466.553	105.667	466.553	105.651	466.553	105.588	466.553	105.543	466.553	105.412	466.553	105.336	466.553	105.13	466.553	105.023	466.553	104.732	466.553	104.595	466.553	104.21	466.553	104.046	466.553	103.562	466.553	103.382	466.553	102.797	466.553	102.637	466.553	101.96	466.553	101.883	466.553	101.146	466.553	101.247	466.553	100.519	466.553	100.874	466.553	100.259	466.553	100.853	466.553	100.436	466.553	101.145	466.553	100.939	466.553	101.617	466.553	101.571	466.553	102.124	466.553	102.165	466.553	102.557	466.553	102.622	466.553	102.852	466.553	102.895	466.553	102.971
482.666	105.588	482.666	105.519	482.666	105.58	482.666	105.374	482.666	105.488	482.666	105.152	482.666	105.299	482.666	104.844	482.666	104.997	482.666	104.438	482.666	104.565	482.666	103.92	482.666	103.983	482.666	103.283	482.666	103.238	482.666	102.536	482.666	102.337	482.666	101.726	482.666	101.331	482.666	100.961	482.666	100.356	482.666	100.418	482.666	99.656	482.666	100.264	482.666	99.4765	482.666	100.521	482.666	99.8402	482.666	101.033	482.666	100.517	482.666	101.597	482.666	101.24	482.666	102.061	482.666	101.839	482.666	102.344	482.666	102.238	482.666	102.407
500.244	105.746	500.244	105.645	500.244	105.76	500.244	105.455	500.244	105.683	500.244	105.167	500.244	105.507	500.244	104.772	500.244	105.22	500.244	104.256	500.244	104.802	500.244	103.611	500.244	104.233	500.244	102.844	500.244	103.491	500.244	101.997	500.244	102.572	500.244	101.168	500.244	101.508	500.244	100.522	500.244	100.417	500.244	100.232	500.244	99.5582	500.244	100.356	500.244	99.2498	500.244	100.785	500.244	99.5867	500.244	101.336	500.244	100.319	500.244	101.857	500.244	101.122	500.244	102.252	500.244	101.794	500.244	102.469	500.244	102.252	500.244	102.476
517.822	105.242	517.822	105.152	517.822	105.281	517.822	105.006	517.822	105.263	517.822	104.795	517.822	105.182	517.822	104.505	517.822	105.024	517.822	104.109	517.822	104.768	517.822	103.577	517.822	104.389	517.822	102.879	517.822	103.856	517.822	102.005	517.822	103.147	517.822	100.995	517.822	102.255	517.822	99.9981	517.822	101.223	517.822	99.3098	517.822	100.199	517.822	99.2188	517.822	99.4629	517.822	99.7025	517.822	99.2987	517.822	100.446	517.822	99.709	517.822	101.151	517.822	100.407	517.822	101.659	517.822	101.098	517.822	101.913	517.822	101.618	517.822	101.897
536.133	105.312	536.133	105.25	536.133	105.306	536.133	105.12	536.133	105.226	536.133	104.917	536.133	105.068	536.133	104.628	536.133	104.82	536.133	104.235	536.133	104.468	536.133	103.713	536.133	103.99	536.133	103.034	536.133	103.366	536.133	102.183	536.133	102.577	536.133	101.178	536.133	101.633	536.133	100.12	536.133	100.604	536.133	99.2518	536.133	99.6799	536.133	98.9097	536.133	99.1658	536.133	99.2315	536.133	99.2743	536.133	99.9776	536.133	99.8801	536.133	100.794	536.133	100.655	536.133	101.454	536.133	101.337	536.133	101.858	536.133	101.793	536.133	101.972
554.443	105.413	554.443	105.348	554.443	105.426	554.443	105.225	554.443	105.387	554.443	105.038	554.443	105.293	554.443	104.775	554.443	105.132	554.443	104.418	554.443	104.884	554.443	103.94	554.443	104.522	554.443	103.316	554.443	104.013	554.443	102.534	554.443	103.33	554.443	101.62	554.443	102.463	554.443	100.676	554.443	101.453	554.443	99.9152	554.443	100.435	554.443	99.5875	554.443	99.6773	554.443	99.777	554.443	99.4594	554.443	100.307	554.443	99.8042	554.443	100.914	554.443	100.442	554.443	101.413	554.443	101.077	554.443	101.707	554.443	101.537	554.443	101.752
574.219	105.139	574.219	105.047	574.219	105.152	574.219	104.881	574.219	105.082	574.219	104.646	574.219	104.924	574.219	104.336	574.219	104.676	574.219	103.941	574.219	104.326	574.219	103.438	574.219	103.857	574.219	102.801	574.219	103.245	574.219	102.014	574.219	102.473	574.219	101.1	574.219	101.553	574.219	100.174	574.219	100.578	574.219	99.4965	574.219	99.7779	574.219	99.3839	574.219	99.4723	574.219	99.8941	574.219	99.7994	574.219	100.738	574.219	100.542	574.219	101.579	574.219	101.368	574.219	102.227	574.219	102.057	574.219	102.606	574.219	102.513	574.219	102.7
594.727	105.893	594.727	105.785	594.727	105.917	594.727	105.59	594.727	105.859	594.727	105.305	594.727	105.717	594.727	104.921	594.727	105.488	594.727	104.418	594.727	105.159	594.727	103.764	594.727	104.704	594.727	102.92	594.727	104.085	594.727	101.852	594.727	103.253	594.727	100.573	594.727	102.159	594.727	99.2276	594.727	100.793	594.727	98.2221	594.727	99.2829	594.727	98.0861	594.727	98.0914	594.727	98.8361	594.727	97.9173	594.727	99.9401	594.727	98.7943	594.727	100.954	594.727	100.02	594.727	101.688	594.727	101.077	594.727	102.083	594.727	101.787	594.727	102.12
615.234	106.014	615.234	105.963	615.234	105.996	615.234	105.843	615.234	105.914	615.234	105.648	615.234	105.767	615.234	105.37	615.234	105.55	615.234	104.991	615.234	105.246	615.234	104.481	615.234	104.824	615.234	103.802	615.234	104.238	615.234	102.907	615.234	103.437	615.234	101.766	615.234	102.373	615.234	100.416	615.234	101.035	615.234	99.08	615.234	99.5458	615.234	98.2801	615.234	98.3337	615.234	98.4769	615.234	98.07	615.234	99.412	615.234	98.8472	615.234	100.483	615.234	100.01	615.234	101.332	615.234	101.023	615.234	101.834	615.234	101.687	615.234	101.957
637.207	106.207	637.207	106.142	637.207	106.2	637.207	106.01	637.207	106.118	637.207	105.815	637.207	105.965	637.207	105.549	637.207	105.744	637.207	105.188	637.207	105.45	637.207	104.688	637.207	105.063	637.207	103.991	637.207	104.542	637.207	103.039	637.207	103.83	637.207	101.791	637.207	102.859	637.207	100.285	637.207	101.584	637.207	98.7921	637.207	100.052	637.207	97.9799	637.207	98.6059	637.207	98.3821	637.207	98.0048	637.207	99.5463	637.207	98.6431	637.207	100.741	637.207	99.8744	637.207	101.621	637.207	101.01	637.207	102.095	637.207	101.788	637.207	102.15
659.912	106.039	659.912	105.964	659.912	106.046	659.912	105.828	659.912	105.989	659.912	105.636	659.912	105.869	659.912	105.391	659.912	105.687	659.912	105.078	659.912	105.437	659.912	104.656	659.912	105.097	659.912	104.056	659.912	104.627	659.912	103.191	659.912	103.971	659.912	101.98	659.912	103.062	659.912	100.394	659.912	101.84	659.912	98.6154	659.912	100.311	659.912	97.3557	659.912	98.7135	659.912	97.5307	659.912	97.7589	659.912	98.7888	659.912	98.1173	659.912	100.146	659.912	99.3161	659.912	101.145	659.912	100.524	659.912	101.686	659.912	101.369	659.912	101.76
683.35	106.121	683.35	106.084	683.35	106.101	683.35	105.991	683.35	106.028	683.35	105.839	683.35	105.908	683.35	105.623	683.35	105.741	683.35	105.321	683.35	105.515	683.35	104.895	683.35	105.196	683.35	104.289	683.35	104.733	683.35	103.424	683.35	104.062	683.35	102.221	683.35	103.123	683.35	100.633	683.35	101.88	683.35	98.8167	683.35	100.387	683.35	97.5045	683.35	98.9508	683.35	97.7278	683.35	98.2686	683.35	99.1048	683.35	98.7903	683.35	100.55	683.35	99.98	683.35	101.601	683.35	101.131	683.35	102.175	683.35	101.926	683.35	102.28
706.787	105.411	706.787	105.331	706.787	105.439	706.787	105.216	706.787	105.416	706.787	105.092	706.787	105.356	706.787	104.975	706.787	105.272	706.787	104.848	706.787	105.163	706.787	104.654	706.787	104.995	706.787	104.306	706.787	104.708	706.787	103.706	706.787	104.214	706.787	102.763	706.787	103.414	706.787	101.424	706.787	102.209	706.787	99.771	706.787	100.552	706.787	98.3108	706.787	98.6491	706.787	98.0615	706.787	97.4511	706.787	99.1804	706.787	98.0626	706.787	100.647	706.787	99.6921	706.787	101.792	706.787	101.172	706.787	102.436	706.787	102.138	706.787	102.554
731.689	105.408	731.689	105.349	731.689	105.367	731.689	105.204	731.689	105.235	731.689	105.003	731.689	105.042	731.689	104.781	731.689	104.827	731.689	104.556	731.689	104.617	731.689	104.301	731.689	104.404	731.689	103.941	731.689	104.13	731.689	103.363	731.689	103.699	731.689	102.434	731.689	103.001	731.689	101.031	731.689	101.935	731.689	99.115	731.689	100.45	731.689	97.1045	731.689	98.7074	731.689	96.5119	731.689	97.4776	731.689	97.9904	731.689	97.8481	731.689	99.9171	731.689	99.3674	731.689	101.355	731.689	100.877	731.689	102.152	731.689	101.895	731.689	102.325
758.057	105.938	758.057	105.855	758.057	105.897	758.057	105.663	758.057	105.738	758.057	105.394	758.057	105.486	758.057	105.091	758.057	105.182	758.057	104.786	758.057	104.867	758.057	104.471	758.057	104.554	758.057	104.077	758.057	104.213	758.057	103.482	758.057	103.753	758.057	102.534	758.057	103.039	758.057	101.082	758.057	101.91	758.057	99.0588	758.057	100.205	758.057	96.8816	758.057	97.8908	758.057	96.2343	758.057	95.7652	758.057	97.824	758.057	96.0989	758.057	99.8187	758.057	98.3501	758.057	101.273	758.057	100.376	758.057	102.061	758.057	101.651	758.057	102.193
784.424	105.687	784.424	105.582	784.424	105.669	784.424	105.364	784.424	105.53	784.424	105.063	784.424	105.292	784.424	104.719	784.424	104.987	784.424	104.369	784.424	104.651	784.424	104.017	784.424	104.301	784.424	103.607	784.424	103.912	784.424	103.024	784.424	103.415	784.424	102.114	784.424	102.701	784.424	100.707	784.424	101.643	784.424	98.6574	784.424	100.101	784.424	96.1197	784.424	97.9755	784.424	94.6459	784.424	95.5594	784.424	95.9997	784.424	94.5462	784.424	98.1822	784.424	96.1109	784.424	99.7397	784.424	98.2302	784.424	100.494	784.424	99.7387	784.424	100.488
812.256	105.315	812.256	105.236	812.256	105.293	812.256	105.082	812.256	105.169	812.256	104.896	812.256	104.964	812.256	104.721	812.256	104.716	812.256	104.57	812.256	104.458	812.256	104.405	812.256	104.2	812.256	104.138	812.256	103.904	812.256	103.651	812.256	103.481	812.256	102.807	812.256	102.801	812.256	101.457	812.256	101.713	812.256	99.4405	812.256	100.061	812.256	96.7385	812.256	97.7546	812.256	94.3738	812.256	95.2177	812.256	94.8855	812.256	94.4436	812.256	97.0873	812.256	96.1585	812.256	98.8419	812.256	98.1307	812.256	99.7879	812.256	99.427	812.256	99.9726
840.82	104.971	840.82	104.838	840.82	104.96	840.82	104.587	840.82	104.814	840.82	104.273	840.82	104.575	840.82	103.973	840.82	104.314	840.82	103.742	840.82	104.101	840.82	103.574	840.82	103.961	840.82	103.381	840.82	103.841	840.82	103.013	840.82	103.626	840.82	102.3	840.82	103.167	840.82	101.073	840.82	102.31	840.82	99.1899	840.82	100.892	840.82	96.7309	840.82	98.7675	840.82	94.9054	840.82	96.0803	840.82	95.7259	840.82	94.4654	840.82	97.7775	840.82	95.8231	840.82	99.3555	840.82	97.9897	840.82	100.158	840.82	99.4984	840.82	100.206
870.85	105.357	870.85	105.164	870.85	105.341	870.85	104.786	870.85	105.127	870.85	104.294	870.85	104.759	870.85	103.824	870.85	104.319	870.85	103.529	870.85	103.925	870.85	103.475	870.85	103.683	870.85	103.539	870.85	103.599	870.85	103.478	870.85	103.535	870.85	103.03	870.85	103.266	870.85	101.961	870.85	102.551	870.85	100.019	870.85	101.155	870.85	96.9541	870.85	98.8267	870.85	93.5954	870.85	95.5382	870.85	94.5192	870.85	93.5967	870.85	97.7353	870.85	95.9785	870.85	99.9481	870.85	98.7615	870.85	101.051	870.85	100.482	870.85	101.215
901.611	105.186	901.611	104.966	901.611	105.192	901.611	104.559	901.611	104.989	901.611	104.034	901.611	104.613	901.611	103.519	901.611	104.156	901.611	103.175	901.611	103.76	901.611	103.084	901.611	103.563	901.611	103.135	901.611	103.57	901.611	103.083	901.611	103.616	901.611	102.666	901.611	103.455	901.611	101.654	901.611	102.852	901.611	99.8195	901.611	101.581	901.611	96.9684	901.611	99.3841	901.611	93.8946	901.611	96.0878	901.611	94.457	901.611	93.4333	901.611	97.3636	901.611	95.4643	901.611	99.5104	901.611	98.3808	901.611	100.633	901.611	100.145	901.611	100.845
933.105	105.849	933.105	105.665	933.105	105.775	933.105	105.231	933.105	105.461	933.105	104.592	933.105	104.945	933.105	103.867	933.105	104.302	933.105	103.273	933.105	103.668	933.105	103.039	933.105	103.232	933.105	103.175	933.105	103.125	933.105	103.389	933.105	103.259	933.105	103.296	933.105	103.344	933.105	102.564	933.105	103.038	933.105	100.865	933.105	102.021	933.105	97.6955	933.105	99.9204	933.105	92.319	933.105	96.1668	933.105	91.1857	933.105	91.4664	933.105	96.5164	933.105	94.3297	933.105	99.6977	933.105	98.4575	933.105	101.229	933.105	100.694	933.105	101.54
966.064	105.927	966.064	105.642	966.064	105.911	966.064	105.062	966.064	105.585	966.064	104.206	966.064	104.947	966.064	103.167	966.064	104.041	966.064	102.215	966.064	103.027	966.064	101.795	966.064	102.245	966.064	102.097	966.064	102.057	966.064	102.725	966.064	102.423	966.064	103.126	966.064	102.891	966.064	102.921	966.064	103.015	966.064	101.822	966.064	102.478	966.064	99.462	966.064	100.967	966.064	95.1512	966.064	97.9338	966.064	89.8606	966.064	92.131	966.064	93.8937	966.064	89.2199	966.064	97.9058	966.064	95.6647	966.064	99.79	966.064	98.9274	966.064	100.119
999.756	106.368	999.756	106.21	999.756	106.289	999.756	105.782	999.756	105.976	999.756	105.035	999.756	105.404	999.756	103.934	999.756	104.533	999.756	102.56	999.756	103.36	999.756	101.326	999.756	102.032	999.756	100.981	999.756	101.012	999.756	101.619	999.756	100.897	999.756	102.416	999.756	101.563	999.756	102.691	999.756	102.253	999.756	102.105	999.756	102.381	999.756	100.373	999.756	101.58	999.756	97.001	999.756	99.4402	999.756	91.4805	999.756	95.1608	999.756	91.5295	999.756	89.0559	999.756	96.1553	999.756	93.3985	999.756	98.4602	999.756	97.398	999.756	98.8571
1,034.91	105.794	1,034.91	105.686	1,034.91	105.76	1,034.91	105.419	1,034.91	105.571	1,034.91	104.947	1,034.91	105.19	1,034.91	104.215	1,034.91	104.564	1,034.91	103.202	1,034.91	103.639	1,034.91	102.02	1,034.91	102.412	1,034.91	101.043	1,034.91	101.056	1,034.91	100.754	1,034.91	100.077	1,034.91	101.11	1,034.91	99.9917	1,034.91	101.505	1,034.91	100.504	1,034.91	101.371	1,034.91	100.855	1,034.91	100.314	1,034.91	100.512	1,034.91	97.9569	1,034.91	99.117	1,034.91	94.1334	1,034.91	96.2609	1,034.91	92.0729	1,034.91	91.9002	1,034.91	94.7107	1,034.91	91.3106	1,034.91	96.5832	1,034.91	94.7704	1,034.91	96.618
1,071.53	105.425	1,071.53	105.309	1,071.53	105.359	1,071.53	104.996	1,071.53	105.127	1,071.53	104.481	1,071.53	104.738	1,071.53	103.763	1,071.53	104.171	1,071.53	102.838	1,071.53	103.385	1,071.53	101.754	1,071.53	102.359	1,071.53	100.725	1,071.53	101.18	1,071.53	100.162	1,071.53	100.142	1,071.53	100.217	1,071.53	99.6416	1,071.53	100.445	1,071.53	99.6638	1,071.53	100.261	1,071.53	99.6736	1,071.53	99.2625	1,071.53	99.1131	1,071.53	97.1996	1,071.53	97.6207	1,071.53	94.2944	1,071.53	95.1056	1,071.53	93.0094	1,071.53	92.7171	1,071.53	94.7281	1,071.53	93.3261	1,071.53	96.2327	1,071.53	95.3288	1,071.53	96.4356
1,109.62	105.18	1,109.62	105.077	1,109.62	105.095	1,109.62	104.773	1,109.62	104.832	1,109.62	104.241	1,109.62	104.395	1,109.62	103.449	1,109.62	103.783	1,109.62	102.389	1,109.62	102.996	1,109.62	101.155	1,109.62	102.039	1,109.62	100.059	1,109.62	100.949	1,109.62	99.5378	1,109.62	99.8971	1,109.62	99.6171	1,109.62	99.2462	1,109.62	99.7961	1,109.62	99.1892	1,109.62	99.5744	1,109.62	99.3076	1,109.62	98.6433	1,109.62	98.9637	1,109.62	96.8358	1,109.62	97.7143	1,109.62	94.4459	1,109.62	95.3671	1,109.62	93.4145	1,109.62	92.7763	1,109.62	94.8075	1,109.62	93.0882	1,109.62	96.185	1,109.62	95.1934	1,109.62	96.3707
1,148.44	105.365	1,148.44	105.201	1,148.44	105.302	1,148.44	104.816	1,148.44	105.021	1,148.44	104.215	1,148.44	104.544	1,148.44	103.405	1,148.44	103.907	1,148.44	102.412	1,148.44	103.148	1,148.44	101.332	1,148.44	102.293	1,148.44	100.374	1,148.44	101.366	1,148.44	99.7736	1,148.44	100.432	1,148.44	99.5103	1,148.44	99.6613	1,148.44	99.2511	1,148.44	99.1858	1,148.44	98.5998	1,148.44	98.8279	1,148.44	97.2578	1,148.44	98.1515	1,148.44	95.2175	1,148.44	96.7377	1,148.44	93.5754	1,148.44	94.4714	1,148.44	94.2156	1,148.44	92.8073	1,148.44	95.9578	1,148.44	94.2077	1,148.44	97.1425	1,148.44	96.3028	1,148.44	97.3142
1,189.45	105.563	1,189.45	105.328	1,189.45	105.557	1,189.45	104.881	1,189.45	105.296	1,189.45	104.246	1,189.45	104.793	1,189.45	103.431	1,189.45	104.083	1,189.45	102.418	1,189.45	103.206	1,189.45	101.217	1,189.45	102.192	1,189.45	99.978	1,189.45	101.088	1,189.45	99.083	1,189.45	100.04	1,189.45	98.7925	1,189.45	99.3205	1,189.45	98.754	1,189.45	99.0518	1,189.45	98.3204	1,189.45	98.9086	1,189.45	96.9967	1,189.45	98.3534	1,189.45	94.6374	1,189.45	96.9673	1,189.45	92.7835	1,189.45	94.7633	1,189.45	94.3932	1,189.45	93.5486	1,189.45	96.8544	1,189.45	95.307	1,189.45	98.2473	1,189.45	97.4153	1,189.45	98.4324
1,231.2	105.793	1,231.2	105.579	1,231.2	105.743	1,231.2	105.125	1,231.2	105.418	1,231.2	104.452	1,231.2	104.84	1,231.2	103.554	1,231.2	104.055	1,231.2	102.396	1,231.2	103.107	1,231.2	100.974	1,231.2	102.024	1,231.2	99.5017	1,231.2	100.846	1,231.2	98.5654	1,231.2	99.7318	1,231.2	98.5012	1,231.2	99.0028	1,231.2	98.7008	1,231.2	98.8182	1,231.2	98.3679	1,231.2	98.7901	1,231.2	96.9464	1,231.2	98.2558	1,231.2	93.9357	1,231.2	96.6231	1,231.2	90.3283	1,231.2	93.6125	1,231.2	92.5787	1,231.2	91.7514	1,231.2	96.1171	1,231.2	94.5191	1,231.2	97.926	1,231.2	97.1338	1,231.2	98.2358
1,274.41	105.141	1,274.41	104.998	1,274.41	105.144	1,274.41	104.719	1,274.41	104.979	1,274.41	104.255	1,274.41	104.608	1,274.41	103.513	1,274.41	103.982	1,274.41	102.42	1,274.41	103.043	1,274.41	101.007	1,274.41	101.753	1,274.41	99.561	1,274.41	100.19	1,274.41	98.6923	1,274.41	98.7304	1,274.41	98.6742	1,274.41	98.0152	1,274.41	98.8663	1,274.41	98.0981	1,274.41	98.5271	1,274.41	98.2079	1,274.41	97.1733	1,274.41	97.6324	1,274.41	94.2787	1,274.41	95.8988	1,274.41	89.9089	1,274.41	92.6917	1,274.41	91.2891	1,274.41	90.3863	1,274.41	95.5082	1,274.41	93.5418	1,274.41	97.6389	1,274.41	96.6031	1,274.41	97.9467
1,319.82	105.208	1,319.82	105.022	1,319.82	105.187	1,319.82	104.668	1,319.82	104.944	1,319.82	104.16	1,319.82	104.482	1,319.82	103.45	1,319.82	103.802	1,319.82	102.454	1,319.82	102.897	1,319.82	101.13	1,319.82	101.762	1,319.82	99.6158	1,319.82	100.405	1,319.82	98.5247	1,319.82	98.9268	1,319.82	98.4967	1,319.82	97.7974	1,319.82	98.9214	1,319.82	97.668	1,319.82	98.7791	1,319.82	98.071	1,319.82	97.4399	1,319.82	97.7907	1,319.82	94.2518	1,319.82	95.8928	1,319.82	88.9452	1,319.82	91.2321	1,319.82	91.0342	1,319.82	85.8282	1,319.82	95.6283	1,319.82	92.5501	1,319.82	97.7407	1,319.82	96.4827	1,319.82	97.9922
1,365.97	105.083	1,365.97	104.958	1,365.97	105.01	1,365.97	104.625	1,365.97	104.764	1,365.97	104.114	1,365.97	104.35	1,365.97	103.452	1,365.97	103.741	1,365.97	102.619	1,365.97	102.919	1,365.97	101.526	1,365.97	101.884	1,365.97	100.01	1,365.97	100.588	1,365.97	98.1608	1,365.97	98.9453	1,365.97	97.0905	1,365.97	97.2245	1,365.97	97.5446	1,365.97	96.5772	1,365.97	97.9637	1,365.97	97.2491	1,365.97	97.0687	1,365.97	97.6879	1,365.97	94.0845	1,365.97	96.7564	1,365.97	87.7595	1,365.97	93.3797	1,365.97	88.2822	1,365.97	85.246	1,365.97	94.205	1,365.97	90.6512	1,365.97	96.9367	1,365.97	95.8718	1,365.97	97.5135
1,414.31	104.705	1,414.31	104.585	1,414.31	104.616	1,414.31	104.225	1,414.31	104.381	1,414.31	103.707	1,414.31	104.018	1,414.31	103.152	1,414.31	103.502	1,414.31	102.519	1,414.31	102.788	1,414.31	101.549	1,414.31	101.842	1,414.31	99.9886	1,414.31	100.643	1,414.31	97.993	1,414.31	99.1782	1,414.31	96.652	1,414.31	97.6355	1,414.31	96.8734	1,414.31	96.7083	1,414.31	97.466	1,414.31	96.8632	1,414.31	97.0406	1,414.31	97.2789	1,414.31	94.6332	1,414.31	96.877	1,414.31	88.3373	1,414.31	94.7383	1,414.31	85.9126	1,414.31	89.4227	1,414.31	93.5074	1,414.31	87.5981	1,414.31	96.3076	1,414.31	93.8234	1,414.31	96.3868
1,464.11	104.754	1,464.11	104.416	1,464.11	104.812	1,464.11	103.902	1,464.11	104.553	1,464.11	103.339	1,464.11	104.012	1,464.11	102.758	1,464.11	103.278	1,464.11	102.032	1,464.11	102.411	1,464.11	100.981	1,464.11	101.326	1,464.11	99.4796	1,464.11	99.9094	1,464.11	97.5968	1,464.11	98.3389	1,464.11	96.0608	1,464.11	97.2009	1,464.11	96.0536	1,464.11	96.9355	1,464.11	97.1091	1,464.11	97.1423	1,464.11	97.5664	1,464.11	96.9997	1,464.11	96.3113	1,464.11	95.8314	1,464.11	92.0138	1,464.11	92.862	1,464.11	82.7081	1,464.11	86.6765	1,464.11	91.3611	1,464.11	87.2649	1,464.11	95.198	1,464.11	93.1168	1,464.11	95.5061
1,515.38	104.88	1,515.38	104.591	1,515.38	104.818	1,515.38	104.004	1,515.38	104.48	1,515.38	103.328	1,515.38	103.94	1,515.38	102.716	1,515.38	103.209	1,515.38	101.969	1,515.38	102.252	1,515.38	100.642	1,515.38	100.991	1,515.38	98.5711	1,515.38	99.4169	1,515.38	96.3108	1,515.38	97.7538	1,515.38	95.1727	1,515.38	96.5002	1,515.38	95.9888	1,515.38	96.4018	1,515.38	97.3148	1,515.38	97.0449	1,515.38	97.607	1,515.38	97.0962	1,515.38	96.1742	1,515.38	95.9456	1,515.38	92.1359	1,515.38	93.2446	1,515.38	81.1988	1,515.38	87.5412	1,515.38	86.0034	1,515.38	82.934	1,515.38	91.7673	1,515.38	90.3684	1,515.38	92.7927
1,568.85	104.83	1,568.85	104.768	1,568.85	104.718	1,568.85	104.415	1,568.85	104.473	1,568.85	103.677	1,568.85	104.028	1,568.85	102.591	1,568.85	103.304	1,568.85	101.321	1,568.85	102.253	1,568.85	99.9728	1,568.85	100.845	1,568.85	98.6907	1,568.85	99.2008	1,568.85	97.5294	1,568.85	97.7003	1,568.85	96.3242	1,568.85	96.5539	1,568.85	95.7321	1,568.85	95.9958	1,568.85	96.1326	1,568.85	96.2891	1,568.85	96.1681	1,568.85	96.3727	1,568.85	94.5969	1,568.85	95.3211	1,568.85	90.4994	1,568.85	92.7034	1,568.85	79.7824	1,568.85	86.5524	1,568.85	84.0767	1,568.85	80.9249	1,568.85	90.8881	1,568.85	90.2762	1,568.85	92.5126
1,624.51	104.466	1,624.51	104.288	1,624.51	104.531	1,624.51	103.982	1,624.51	104.296	1,624.51	103.237	1,624.51	103.595	1,624.51	101.779	1,624.51	102.439	1,624.51	100.009	1,624.51	101.099	1,624.51	99.0641	1,624.51	100.006	1,624.51	99.0544	1,624.51	99.242	1,624.51	98.5206	1,624.51	98.257	1,624.51	96.7319	1,624.51	96.4909	1,624.51	94.6977	1,624.51	94.6086	1,624.51	93.4278	1,624.51	94.0059	1,624.51	92.8794	1,624.51	93.8317	1,624.51	92.8983	1,624.51	93.3886	1,624.51	92.178	1,624.51	92.2763	1,624.51	88.5715	1,624.51	88.925	1,624.51	82.2128	1,624.51	79.2362	1,624.51	87.8892	1,624.51	85.4179	1,624.51	89.497
1,681.64	103.599	1,681.64	103.316	1,681.64	103.604	1,681.64	102.829	1,681.64	103.35	1,681.64	102.18	1,681.64	102.905	1,681.64	101.311	1,681.64	102.23	1,681.64	100.204	1,681.64	101.228	1,681.64	99.0483	1,681.64	100.002	1,681.64	98.0881	1,681.64	98.8016	1,681.64	97.1408	1,681.64	97.5058	1,681.64	95.6403	1,681.64	95.5996	1,681.64	93.7743	1,681.64	93.2988	1,681.64	93.2585	1,681.64	93.0778	1,681.64	94.2135	1,681.64	94.443	1,681.64	94.7116	1,681.64	94.824	1,681.64	93.4824	1,681.64	93.612	1,681.64	89.8151	1,681.64	90.4174	1,681.64	87.3776	1,681.64	85.0085	1,681.64	90.2709	1,681.64	87.3069	1,681.64	90.6969
1,740.97	104.488	1,740.97	104.325	1,740.97	104.279	1,740.97	103.716	1,740.97	103.868	1,740.97	102.701	1,740.97	103.413	1,740.97	101.461	1,740.97	102.836	1,740.97	100.202	1,740.97	101.881	1,740.97	98.9298	1,740.97	100.507	1,740.97	97.5434	1,740.97	99.0908	1,740.97	96.0036	1,740.97	97.9843	1,740.97	94.2443	1,740.97	96.9063	1,740.97	92.5522	1,740.97	95.1665	1,740.97	92.2742	1,740.97	93.1271	1,740.97	93.5188	1,740.97	93.3785	1,740.97	93.6941	1,740.97	94.8739	1,740.97	91.3076	1,740.97	94.9475	1,740.97	85.6004	1,740.97	92.5435	1,740.97	80.9757	1,740.97	87.1097	1,740.97	86.2835	1,740.97	86.0392	1,740.97	88.1409
1,802.49	104.5	1,802.49	104.368	1,802.49	104.341	1,802.49	103.853	1,802.49	104.064	1,802.49	102.996	1,802.49	103.682	1,802.49	101.847	1,802.49	103.011	1,802.49	100.392	1,802.49	101.88	1,802.49	98.7703	1,802.49	100.372	1,802.49	97.4803	1,802.49	98.8508	1,802.49	96.7349	1,802.49	97.6007	1,802.49	95.7724	1,802.49	96.5496	1,802.49	93.9773	1,802.49	95.4477	1,802.49	92.3742	1,802.49	94.2858	1,802.49	92.2268	1,802.49	93.8339	1,802.49	92.8015	1,802.49	94.2252	1,802.49	92.8811	1,802.49	93.8551	1,802.49	90.8139	1,802.49	91.438	1,802.49	87.8596	1,802.49	87.2946	1,802.49	90.8911	1,802.49	89.115	1,802.49	91.8488
1,866.21	103.837	1,866.21	103.576	1,866.21	103.912	1,866.21	103.205	1,866.21	103.698	1,866.21	102.657	1,866.21	103.101	1,866.21	101.707	1,866.21	102.147	1,866.21	100.307	1,866.21	100.943	1,866.21	98.9616	1,866.21	99.4532	1,866.21	98.191	1,866.21	97.7531	1,866.21	97.6389	1,866.21	96.3206	1,866.21	96.4207	1,866.21	95.1986	1,866.21	93.7608	1,866.21	93.6167	1,866.21	91.0814	1,866.21	91.5421	1,866.21	91.3008	1,866.21	90.9459	1,866.21	92.8395	1,866.21	91.7293	1,866.21	93.0678	1,866.21	91.9546	1,866.21	90.8049	1,866.21	90.3423	1,866.21	87.1047	1,866.21	86.1191	1,866.21	88.6386	1,866.21	85.4047	1,866.21	88.8391
1,932.13	103.468	1,932.13	103.474	1,932.13	103.289	1,932.13	103.118	1,932.13	103.014	1,932.13	102.13	1,932.13	102.553	1,932.13	100.518	1,932.13	101.653	1,932.13	99.0707	1,932.13	100.195	1,932.13	98.5256	1,932.13	98.5587	1,932.13	97.9703	1,932.13	97.4211	1,932.13	96.5727	1,932.13	96.6869	1,932.13	94.1794	1,932.13	95.5297	1,932.13	91.1739	1,932.13	93.6083	1,932.13	90.2808	1,932.13	91.2778	1,932.13	91.934	1,932.13	90.1265	1,932.13	93.1453	1,932.13	91.0154	1,932.13	92.4231	1,932.13	91.7693	1,932.13	89.4577	1,932.13	90.1694	1,932.13	85.7182	1,932.13	84.8151	1,932.13	87.1176	1,932.13	84.0286	1,932.13	87.7429
2,000.24	104.883	2,000.24	104.475	2,000.24	104.874	2,000.24	103.67	2,000.24	104.445	2,000.24	102.541	2,000.24	103.614	2,000.24	101.206	2,000.24	102.511	2,000.24	99.7541	2,000.24	101.312	2,000.24	98.1861	2,000.24	100.024	2,000.24	96.47	2,000.24	98.6077	2,000.24	94.7502	2,000.24	97.1786	2,000.24	93.3615	2,000.24	95.7849	2,000.24	92.2039	2,000.24	94.4037	2,000.24	91.3065	2,000.24	93.0537	2,000.24	91.5496	2,000.24	92.1358	2,000.24	91.9865	2,000.24	92.581	2,000.24	91.0934	2,000.24	93.0451	2,000.24	88.7582	2,000.24	91.9499	2,000.24	87.9775	2,000.24	89.8874	2,000.24	89.7726	2,000.24	89.4474	2,000.24	90.2645
2,070.56	105.662	2,070.56	105.348	2,070.56	105.553	2,070.56	104.594	2,070.56	105.068	2,070.56	103.49	2,070.56	104.23	2,070.56	102.165	2,070.56	103.13	2,070.56	100.743	2,070.56	101.851	2,070.56	99.2911	2,070.56	100.356	2,070.56	97.7844	2,070.56	98.7227	2,070.56	96.188	2,070.56	97.2321	2,070.56	94.3832	2,070.56	95.9496	2,070.56	92.3338	2,070.56	94.5888	2,070.56	90.9388	2,070.56	93.3683	2,070.56	91.4601	2,070.56	93.0336	2,070.56	92.5122	2,070.56	93.3952	2,070.56	92.0474	2,070.56	93.4558	2,070.56	89.8576	2,070.56	92.0846	2,070.56	89.3707	2,070.56	90.5689	2,070.56	91.8008	2,070.56	91.864	2,070.56	92.8687
2,143.8	105.22	2,143.8	104.935	2,143.8	105.106	2,143.8	104.324	2,143.8	104.549	2,143.8	103.43	2,143.8	103.616	2,143.8	102.342	2,143.8	102.453	2,143.8	101.113	2,143.8	101.146	2,143.8	99.7704	2,143.8	99.6489	2,143.8	98.4381	2,143.8	97.9783	2,143.8	97.243	2,143.8	96.2808	2,143.8	96.1823	2,143.8	94.9779	2,143.8	94.8277	2,143.8	94.1313	2,143.8	93.0216	2,143.8	92.6799	2,143.8	92.5326	2,143.8	91.5027	2,143.8	93.517	2,143.8	92.5256	2,143.8	93.1449	2,143.8	92.9271	2,143.8	90.7779	2,143.8	91.1289	2,143.8	89.9555	2,143.8	88.4855	2,143.8	92.3621	2,143.8	90.7848	2,143.8	92.9788
2,219.24	104.44	2,219.24	104.045	2,219.24	104.396	2,219.24	103.282	2,219.24	103.912	2,219.24	102.193	2,219.24	103.073	2,219.24	100.934	2,219.24	101.954	2,219.24	99.6894	2,219.24	100.715	2,219.24	98.4095	2,219.24	99.491	2,219.24	97.029	2,219.24	98.1043	2,219.24	95.6301	2,219.24	96.2805	2,219.24	94.6548	2,219.24	94.1531	2,219.24	94.3012	2,219.24	92.818	2,219.24	93.5659	2,219.24	92.266	2,219.24	92.7942	2,219.24	90.8279	2,219.24	93.164	2,219.24	90.4043	2,219.24	92.5386	2,219.24	91.6758	2,219.24	89.6478	2,219.24	90.7489	2,219.24	88.2618	2,219.24	87.258	2,219.24	90.5694	2,219.24	88.2919	2,219.24	90.8682
2,297.61	105.632	2,297.61	105.24	2,297.61	105.657	2,297.61	104.483	2,297.61	105.287	2,297.61	103.333	2,297.61	104.59	2,297.61	101.904	2,297.61	103.572	2,297.61	100.319	2,297.61	102.182	2,297.61	98.6857	2,297.61	100.541	2,297.61	97.0546	2,297.61	98.8846	2,297.61	95.1914	2,297.61	97.2722	2,297.61	93.0353	2,297.61	95.6174	2,297.61	91.3601	2,297.61	94.0545	2,297.61	90.6806	2,297.61	93.0727	2,297.61	90.7622	2,297.61	92.6272	2,297.61	92.0073	2,297.61	92.286	2,297.61	92.1584	2,297.61	92.409	2,297.61	89.3774	2,297.61	91.7589	2,297.61	87.0126	2,297.61	89.0327	2,297.61	90.0899	2,297.61	89.2921	2,297.61	91.1814
2,378.17	106.564	2,378.17	106.255	2,378.17	106.472	2,378.17	105.586	2,378.17	105.974	2,378.17	104.592	2,378.17	105.098	2,378.17	103.296	2,378.17	103.827	2,378.17	101.678	2,378.17	102.255	2,378.17	99.8668	2,378.17	100.636	2,378.17	98.0836	2,378.17	99.0707	2,378.17	96.15	2,378.17	97.5138	2,378.17	94.2453	2,378.17	95.8458	2,378.17	93.1444	2,378.17	94.2169	2,378.17	92.1065	2,378.17	92.8827	2,378.17	90.8466	2,378.17	91.7356	2,378.17	91.5108	2,378.17	92.1672	2,378.17	92.4166	2,378.17	93.0082	2,378.17	90.6867	2,378.17	91.7725	2,378.17	88.0281	2,378.17	89.0042	2,378.17	90.1463	2,378.17	89.467	2,378.17	91.174
2,462.4	106.346	2,462.4	106.157	2,462.4	106.139	2,462.4	105.379	2,462.4	105.596	2,462.4	104.06	2,462.4	104.613	2,462.4	102.591	2,462.4	103.265	2,462.4	101.097	2,462.4	101.786	2,462.4	99.4428	2,462.4	100.128	2,462.4	97.9498	2,462.4	98.3901	2,462.4	96.557	2,462.4	96.8621	2,462.4	94.5473	2,462.4	95.1104	2,462.4	92.5342	2,462.4	92.8743	2,462.4	91.9211	2,462.4	91.239	2,462.4	91.7831	2,462.4	90.5813	2,462.4	92.1992	2,462.4	90.4644	2,462.4	92.7058	2,462.4	92.1245	2,462.4	91.2228	2,462.4	92.0213	2,462.4	88.7199	2,462.4	88.0708	2,462.4	90.5396	2,462.4	88.6608	2,462.4	91.2202
2,548.83	106.444	2,548.83	106.085	2,548.83	106.349	2,548.83	105.226	2,548.83	105.794	2,548.83	103.926	2,548.83	104.832	2,548.83	102.445	2,548.83	103.501	2,548.83	100.686	2,548.83	101.891	2,548.83	98.5472	2,548.83	100.184	2,548.83	96.7886	2,548.83	98.571	2,548.83	95.6026	2,548.83	97.2078	2,548.83	93.9318	2,548.83	95.6995	2,548.83	91.8763	2,548.83	93.5691	2,548.83	90.299	2,548.83	91.3447	2,548.83	89.7652	2,548.83	90.0533	2,548.83	90.6653	2,548.83	90.0144	2,548.83	91.7948	2,548.83	91.4658	2,548.83	91.0634	2,548.83	92.0661	2,548.83	89.1513	2,548.83	89.4972	2,548.83	91.045	2,548.83	88.5483	2,548.83	91.3999
2,638.92	106.685	2,638.92	106.277	2,638.92	106.612	2,638.92	105.401	2,638.92	106.069	2,638.92	104.242	2,638.92	105.027	2,638.92	102.869	2,638.92	103.628	2,638.92	101.18	2,638.92	102.061	2,638.92	99.1221	2,638.92	100.356	2,638.92	96.8673	2,638.92	98.4869	2,638.92	95.1075	2,638.92	96.7219	2,638.92	93.5809	2,638.92	95.3835	2,638.92	91.7147	2,638.92	93.7278	2,638.92	90.6379	2,638.92	91.6825	2,638.92	89.5831	2,638.92	90.4731	2,638.92	89.5662	2,638.92	90.0195	2,638.92	90.9722	2,638.92	90.8525	2,638.92	90.5229	2,638.92	91.3011	2,638.92	88.0687	2,638.92	88.8023	2,638.92	90.0191	2,638.92	88.5256	2,638.92	90.9704
2,731.93	105.978	2,731.93	105.608	2,731.93	105.956	2,731.93	104.902	2,731.93	105.429	2,731.93	103.78	2,731.93	104.51	2,731.93	102.349	2,731.93	103.3	2,731.93	100.834	2,731.93	101.716	2,731.93	99.1375	2,731.93	99.7729	2,731.93	97.1171	2,731.93	97.7378	2,731.93	95.5564	2,731.93	95.8033	2,731.93	94.4121	2,731.93	94.1131	2,731.93	92.7038	2,731.93	93.2316	2,731.93	91.0033	2,731.93	92.313	2,731.93	89.3156	2,731.93	90.1915	2,731.93	89.327	2,731.93	88.6958	2,731.93	90.7054	2,731.93	89.5316	2,731.93	90.4788	2,731.93	90.4999	2,731.93	87.9965	2,731.93	88.0311	2,731.93	89.3886	2,731.93	86.2474	2,731.93	90.1643
2,828.61	106.033	2,828.61	105.681	2,828.61	106	2,828.61	104.879	2,828.61	105.471	2,828.61	103.67	2,828.61	104.64	2,828.61	102.314	2,828.61	103.593	2,828.61	100.664	2,828.61	102.106	2,828.61	98.8602	2,828.61	100.212	2,828.61	97.0026	2,828.61	98.1576	2,828.61	95.1963	2,828.61	96.2531	2,828.61	94.2417	2,828.61	94.4958	2,828.61	92.4799	2,828.61	92.9359	2,828.61	90.5691	2,828.61	91.8937	2,828.61	89.8118	2,828.61	90.6883	2,828.61	88.778	2,828.61	88.9541	2,828.61	90.2364	2,828.61	89.3066	2,828.61	89.6134	2,828.61	90.6604	2,828.61	87.3643	2,828.61	88.062	2,828.61	88.8548	2,828.61	86.6807	2,828.61	88.9679
2,928.22	106.038	2,928.22	105.61	2,928.22	105.823	2,928.22	104.692	2,928.22	105.08	2,928.22	103.571	2,928.22	104.125	2,928.22	102.268	2,928.22	102.899	2,928.22	100.663	2,928.22	101.226	2,928.22	99.0634	2,928.22	99.6477	2,928.22	97.4028	2,928.22	97.9792	2,928.22	95.2106	2,928.22	95.692	2,928.22	93.6339	2,928.22	94.0585	2,928.22	92.8722	2,928.22	92.6044	2,928.22	91.5687	2,928.22	90.7095	2,928.22	90.2921	2,928.22	89.9564	2,928.22	89.0841	2,928.22	89.3478	2,928.22	89.6276	2,928.22	88.7434	2,928.22	88.9796	2,928.22	90.0282	2,928.22	85.3851	2,928.22	88.1851	2,928.22	88.2695	2,928.22	85.0055	2,928.22	89.5755
3,031.49	105.451	3,031.49	104.946	3,031.49	105.266	3,031.49	103.926	3,031.49	104.736	3,031.49	102.9	3,031.49	103.797	3,031.49	101.549	3,031.49	102.32	3,031.49	99.8572	3,031.49	100.696	3,031.49	98.2379	3,031.49	99.2402	3,031.49	96.2546	3,031.49	97.4572	3,031.49	93.5744	3,031.49	95.4314	3,031.49	91.7408	3,031.49	93.8624	3,031.49	91.3441	3,031.49	92.4684	3,031.49	89.906	3,031.49	90.7698	3,031.49	88.3412	3,031.49	89.555	3,031.49	87.5786	3,031.49	88.4705	3,031.49	88.5579	3,031.49	88.2615	3,031.49	88.5814	3,031.49	89.3395	3,031.49	84.7719	3,031.49	87.5293	3,031.49	85.8414	3,031.49	83.1554	3,031.49	86.4059
3,138.43	105.64	3,138.43	105.435	3,138.43	105.514	3,138.43	104.713	3,138.43	105.037	3,138.43	103.338	3,138.43	104.041	3,138.43	101.821	3,138.43	102.488	3,138.43	100.123	3,138.43	100.746	3,138.43	98.0159	3,138.43	98.9126	3,138.43	95.993	3,138.43	97.1254	3,138.43	93.9297	3,138.43	95.3114	3,138.43	91.9541	3,138.43	93.1725	3,138.43	90.0849	3,138.43	92.1339	3,138.43	88.9966	3,138.43	90.6794	3,138.43	88.0501	3,138.43	88.9242	3,138.43	86.2414	3,138.43	87.0354	3,138.43	87.3785	3,138.43	84.6027	3,138.43	87.7172	3,138.43	88.2499	3,138.43	85.8211	3,138.43	88.5319	3,138.43	84.8667	3,138.43	85.2788	3,138.43	85.5383
3,249.02	106.189	3,249.02	105.821	3,249.02	106.113	3,249.02	104.871	3,249.02	105.471	3,249.02	103.399	3,249.02	104.284	3,249.02	101.626	3,249.02	102.694	3,249.02	99.6486	3,249.02	100.844	3,249.02	97.6895	3,249.02	98.8766	3,249.02	96.1557	3,249.02	96.9288	3,249.02	94.5687	3,249.02	94.6946	3,249.02	92.3096	3,249.02	92.4768	3,249.02	90.2744	3,249.02	91.2963	3,249.02	88.4973	3,249.02	90.1099	3,249.02	89.2769	3,249.02	88.6536	3,249.02	88.1246	3,249.02	89.238	3,249.02	87.263	3,249.02	87.0676	3,249.02	87.3701	3,249.02	88.2234	3,249.02	84.2932	3,249.02	87.1201	3,249.02	84.995	3,249.02	84.8524	3,249.02	86.6104
3,363.28	105.828	3,363.28	105.438	3,363.28	105.716	3,363.28	104.524	3,363.28	105.104	3,363.28	103.287	3,363.28	103.916	3,363.28	101.554	3,363.28	102.236	3,363.28	99.3279	3,363.28	100.365	3,363.28	97.5207	3,363.28	98.2917	3,363.28	95.8357	3,363.28	96.2576	3,363.28	94.0728	3,363.28	94.1975	3,363.28	92.6811	3,363.28	92.2159	3,363.28	90.7751	3,363.28	90.2266	3,363.28	88.8872	3,363.28	88.4142	3,363.28	89.8963	3,363.28	88.2544	3,363.28	89.7539	3,363.28	89.5084	3,363.28	88.4577	3,363.28	87.243	3,363.28	88.6177	3,363.28	86.5158	3,363.28	84.5086	3,363.28	87.5236	3,363.28	85.9195	3,363.28	83.2265	3,363.28	86.8048
3,481.93	106.071	3,481.93	105.574	3,481.93	105.898	3,481.93	104.589	3,481.93	105.189	3,481.93	103.282	3,481.93	103.926	3,481.93	101.363	3,481.93	102.439	3,481.93	99.2293	3,481.93	100.812	3,481.93	97.3719	3,481.93	98.7279	3,481.93	95.1473	3,481.93	96.4471	3,481.93	92.594	3,481.93	94.8839	3,481.93	91.1378	3,481.93	93.1046	3,481.93	90.3439	3,481.93	90.7796	3,481.93	88.3546	3,481.93	89.566	3,481.93	88.8027	3,481.93	87.6291	3,481.93	88.1951	3,481.93	88.398	3,481.93	87.6379	3,481.93	87.2772	3,481.93	88.7024	3,481.93	86.7276	3,481.93	86.3249	3,481.93	87.4758	3,481.93	85.9697	3,481.93	84.5326	3,481.93	87.4024
3,604.98	105.791	3,604.98	105.384	3,604.98	105.623	3,604.98	104.444	3,604.98	104.939	3,604.98	103.207	3,604.98	103.542	3,604.98	101.682	3,604.98	101.905	3,604.98	100.014	3,604.98	100.339	3,604.98	97.685	3,604.98	98.2381	3,604.98	94.8909	3,604.98	95.9191	3,604.98	93.4245	3,604.98	93.9428	3,604.98	91.632	3,604.98	92.1031	3,604.98	90.3234	3,604.98	90.6245	3,604.98	87.9979	3,604.98	90.1659	3,604.98	86.9424	3,604.98	88.1039	3,604.98	88.0916	3,604.98	87.9134	3,604.98	86.8516	3,604.98	87.4922	3,604.98	88.4631	3,604.98	87.3135	3,604.98	86.3462	3,604.98	86.8618	3,604.98	85.9652	3,604.98	83.82	3,604.98	84.9831
3,732.42	105.272	3,732.42	104.779	3,732.42	105.241	3,732.42	103.747	3,732.42	104.642	3,732.42	102.467	3,732.42	103.44	3,732.42	100.984	3,732.42	102.04	3,732.42	99.4035	3,732.42	100.266	3,732.42	97.1104	3,732.42	98.1892	3,732.42	94.7669	3,732.42	96.1985	3,732.42	92.8398	3,732.42	93.9448	3,732.42	91.1212	3,732.42	91.9994	3,732.42	90.4828	3,732.42	89.4327	3,732.42	88.5034	3,732.42	88.3464	3,732.42	86.398	3,732.42	87.5089	3,732.42	88.043	3,732.42	87.5075	3,732.42	86.0884	3,732.42	87.7333	3,732.42	88.267	3,732.42	87.5076	3,732.42	84.8465	3,732.42	87.7612	3,732.42	85.7599	3,732.42	83.2666	3,732.42	84.4316
3,863.53	104.908	3,863.53	104.622	3,863.53	104.772	3,863.53	103.745	3,863.53	104.151	3,863.53	102.401	3,863.53	103.094	3,863.53	100.822	3,863.53	101.596	3,863.53	98.7724	3,863.53	99.7057	3,863.53	96.742	3,863.53	97.8813	3,863.53	95.0121	3,863.53	95.9711	3,863.53	92.9962	3,863.53	93.7	3,863.53	91.1704	3,863.53	91.8695	3,863.53	89.5062	3,863.53	90.0399	3,863.53	88.255	3,863.53	88.76	3,863.53	85.3982	3,863.53	87.6236	3,863.53	87.0137	3,863.53	86.8595	3,863.53	87.1953	3,863.53	87.5755	3,863.53	87.8426	3,863.53	86.0432	3,863.53	84.7639	3,863.53	87.7524	3,863.53	83.3876	3,863.53	83.3444	3,863.53	88.0246
3,999.76	105.105	3,999.76	104.705	3,999.76	105.061	3,999.76	103.969	3,999.76	104.458	3,999.76	102.763	3,999.76	103.371	3,999.76	101.01	3,999.76	102.081	3,999.76	99.2934	3,999.76	100.547	3,999.76	98.0331	3,999.76	98.801	3,999.76	95.5828	3,999.76	96.9513	3,999.76	92.8666	3,999.76	95.0318	3,999.76	91.5128	3,999.76	93.222	3,999.76	88.8652	3,999.76	90.8886	3,999.76	88.4477	3,999.76	89.3782	3,999.76	86.2395	3,999.76	87.9477	3,999.76	86.0669	3,999.76	86.3625	3,999.76	85.9368	3,999.76	88.5463	3,999.76	89.0343	3,999.76	86.8213	3,999.76	87.1418	3,999.76	87.816	3,999.76	85.9322	3,999.76	83.4469	3,999.76	86.3848
4,141.11	104.839	4,141.11	104.505	4,141.11	104.658	4,141.11	103.877	4,141.11	104.221	4,141.11	102.863	4,141.11	103.084	4,141.11	101.436	4,141.11	101.679	4,141.11	100.231	4,141.11	100.48	4,141.11	98.6008	4,141.11	98.5648	4,141.11	96.3498	4,141.11	96.4751	4,141.11	94.799	4,141.11	94.6402	4,141.11	93.0057	4,141.11	92.0267	4,141.11	90.6295	4,141.11	90.4681	4,141.11	89.8086	4,141.11	88.6121	4,141.11	87.9555	4,141.11	87.9983	4,141.11	88.7298	4,141.11	85.987	4,141.11	86.8089	4,141.11	87.0786	4,141.11	86.7883	4,141.11	86.6281	4,141.11	87.5766	4,141.11	86.5709	4,141.11	83.0533	4,141.11	85.3063	4,141.11	83.5547
4,286.87	105.787	4,286.87	105.652	4,286.87	105.624	4,286.87	104.848	4,286.87	105.245	4,286.87	103.899	4,286.87	104.496	4,286.87	102.706	4,286.87	103.455	4,286.87	100.807	4,286.87	101.687	4,286.87	98.011	4,286.87	99.972	4,286.87	96.3191	4,286.87	98.3926	4,286.87	94.3756	4,286.87	96.4202	4,286.87	91.3695	4,286.87	93.7618	4,286.87	89.2181	4,286.87	91.4449	4,286.87	88.696	4,286.87	90.1503	4,286.87	86.5567	4,286.87	87.547	4,286.87	89.2193	4,286.87	87.1687	4,286.87	89.158	4,286.87	88.1971	4,286.87	87.4867	4,286.87	88.0201	4,286.87	83.2483	4,286.87	88.0736	4,286.87	81.9096	4,286.87	83.0249	4,286.87	84.0206
4,438.48	105.921	4,438.48	105.667	4,438.48	105.964	4,438.48	104.955	4,438.48	105.423	4,438.48	104.345	4,438.48	104.707	4,438.48	103.193	4,438.48	103.574	4,438.48	101.013	4,438.48	101.977	4,438.48	99.0982	4,438.48	100.102	4,438.48	96.9747	4,438.48	97.8292	4,438.48	94.8598	4,438.48	95.7048	4,438.48	93.2021	4,438.48	93.412	4,438.48	90.6713	4,438.48	91.1564	4,438.48	88.7994	4,438.48	88.8284	4,438.48	87.6707	4,438.48	88.5964	4,438.48	84.6904	4,438.48	84.8537	4,438.48	88.166	4,438.48	87.1479	4,438.48	89.3791	4,438.48	87.5815	4,438.48	89.5392	4,438.48	88.4456	4,438.48	86.4273	4,438.48	82.8956	4,438.48	87.3037
4,594.48	106.92	4,594.48	106.501	4,594.48	106.83	4,594.48	106.09	4,594.48	106.392	4,594.48	104.997	4,594.48	105.419	4,594.48	102.995	4,594.48	103.813	4,594.48	101.221	4,594.48	102.111	4,594.48	98.751	4,594.48	99.9043	4,594.48	95.7155	4,594.48	97.1832	4,594.48	93.5168	4,594.48	95.3937	4,594.48	91.644	4,594.48	92.8052	4,594.48	88.9158	4,594.48	90.3526	4,594.48	87.8246	4,594.48	88.905	4,594.48	85.3798	4,594.48	87.0052	4,594.48	84.8872	4,594.48	86.1234	4,594.48	86.3549	4,594.48	86.4893	4,594.48	87.0154	4,594.48	85.3397	4,594.48	86.7593	4,594.48	86.7147	4,594.48	81.0899	4,594.48	85.6107	4,594.48	83.7205
4,757.08	107.093	4,757.08	106.89	4,757.08	107.099	4,757.08	105.947	4,757.08	106.682	4,757.08	104.479	4,757.08	105.586	4,757.08	102.864	4,757.08	104.087	4,757.08	100.695	4,757.08	101.791	4,757.08	97.2915	4,757.08	99.1777	4,757.08	95.3733	4,757.08	97.104	4,757.08	94.1483	4,757.08	94.399	4,757.08	89.8692	4,757.08	90.8814	4,757.08	88.1094	4,757.08	89.0151	4,757.08	86.9292	4,757.08	87.961	4,757.08	86.9293	4,757.08	86.5617	4,757.08	85.9751	4,757.08	83.6919	4,757.08	86.9473	4,757.08	86.4665	4,757.08	84.9877	4,757.08	86.7547	4,757.08	85.5359	4,757.08	86.9957	4,757.08	81.9286	4,757.08	83.5661	4,757.08	80.8057
4,924.8	107.118	4,924.8	106.899	4,924.8	107.033	4,924.8	105.928	4,924.8	106.347	4,924.8	104.777	4,924.8	105.234	4,924.8	103.056	4,924.8	103.559	4,924.8	100.068	4,924.8	101.209	4,924.8	97.9639	4,924.8	99.0724	4,924.8	95.4267	4,924.8	96.3229	4,924.8	92.183	4,924.8	93.8031	4,924.8	90.9811	4,924.8	92.031	4,924.8	87.6037	4,924.8	89.2785	4,924.8	86.0804	4,924.8	87.3035	4,924.8	85.3943	4,924.8	86.0921	4,924.8	82.4828	4,924.8	83.3413	4,924.8	86.5148	4,924.8	84.8834	4,924.8	86.6907	4,924.8	86.1991	4,924.8	86.7431	4,924.8	86.9852	4,924.8	85.8	4,924.8	83.0397	4,924.8	86.9301
5,098.39	107.205	5,098.39	106.699	5,098.39	107.031	5,098.39	105.843	5,098.39	106.447	5,098.39	104.382	5,098.39	105.297	5,098.39	102.043	5,098.39	103.369	5,098.39	99.4699	5,098.39	101.29	5,098.39	97.1285	5,098.39	99.0703	5,098.39	94.7435	5,098.39	96.7058	5,098.39	92.2788	5,098.39	94.5896	5,098.39	90.8141	5,098.39	91.6652	5,098.39	89.2061	5,098.39	89.9443	5,098.39	87.0632	5,098.39	88.1723	5,098.39	86.9096	5,098.39	86.7583	5,098.39	83.6305	5,098.39	84.6577	5,098.39	88.1473	5,098.39	84.0529	5,098.39	87.5796	5,098.39	86.3065	5,098.39	86.9323	5,098.39	87.1082	5,098.39	79.9068	5,098.39	85.5481	5,098.39	84.628
5,277.83	106.12	5,277.83	105.839	5,277.83	106.062	5,277.83	105.026	5,277.83	105.435	5,277.83	103.595	5,277.83	104.224	5,277.83	101.783	5,277.83	102.511	5,277.83	99.9125	5,277.83	100.105	5,277.83	97.7688	5,277.83	97.9419	5,277.83	95.4392	5,277.83	96.3202	5,277.83	94.1144	5,277.83	93.5935	5,277.83	91.2842	5,277.83	91.4972	5,277.83	89.4357	5,277.83	89.1826	5,277.83	86.1925	5,277.83	88.7531	5,277.83	84.9716	5,277.83	86.6469	5,277.83	84.8268	5,277.83	85.3755	5,277.83	85.3952	5,277.83	84.4099	5,277.83	84.974	5,277.83	85.9916	5,277.83	87.0702	5,277.83	86.4836	5,277.83	81.9335	5,277.83	83.5156	5,277.83	82.3944
5,463.87	106.134	5,463.87	105.782	5,463.87	106.009	5,463.87	104.944	5,463.87	105.426	5,463.87	103.355	5,463.87	103.968	5,463.87	101.531	5,463.87	102.054	5,463.87	99.2074	5,463.87	100.143	5,463.87	97.4479	5,463.87	98.6461	5,463.87	95.4189	5,463.87	96.8774	5,463.87	92.2404	5,463.87	94.2093	5,463.87	90.1436	5,463.87	92.0946	5,463.87	87.7949	5,463.87	89.8882	5,463.87	87.2395	5,463.87	87.0353	5,463.87	84.4679	5,463.87	85.6606	5,463.87	84.5157	5,463.87	83.3093	5,463.87	85.4899	5,463.87	83.7548	5,463.87	84.7069	5,463.87	86.1712	5,463.87	85.8559	5,463.87	84.7139	5,463.87	76.7863	5,463.87	84.1376	5,463.87	79.1148
5,656.49	105.499	5,656.49	104.98	5,656.49	105.329	5,656.49	103.913	5,656.49	104.565	5,656.49	102.349	5,656.49	103.275	5,656.49	100.554	5,656.49	101.679	5,656.49	98.7111	5,656.49	99.6824	5,656.49	96.4939	5,656.49	98.2532	5,656.49	94.2964	5,656.49	96.2606	5,656.49	92.4917	5,656.49	93.2533	5,656.49	89.8301	5,656.49	90.3773	5,656.49	88.2057	5,656.49	88.1479	5,656.49	86.2141	5,656.49	86.9972	5,656.49	84.8404	5,656.49	85.0988	5,656.49	83.1355	5,656.49	84.4059	5,656.49	85.8533	5,656.49	81.4905	5,656.49	85.36	5,656.49	85.273	5,656.49	86.2066	5,656.49	84.3949	5,656.49	76.0447	5,656.49	84.6319	5,656.49	78.104
5,856.45	104.987	5,856.45	104.397	5,856.45	104.798	5,856.45	103.328	5,856.45	103.96	5,856.45	101.919	5,856.45	102.856	5,856.45	100.426	5,856.45	101.329	5,856.45	98.8646	5,856.45	99.8996	5,856.45	97.1068	5,856.45	98.2474	5,856.45	95.0228	5,856.45	96.0577	5,856.45	92.6915	5,856.45	93.154	5,856.45	89.909	5,856.45	90.7832	5,856.45	86.7235	5,856.45	88.7213	5,856.45	84.6574	5,856.45	86.6776	5,856.45	82.0554	5,856.45	84.7724	5,856.45	83.0796	5,856.45	83.9165	5,856.45	83.5227	5,856.45	83.1571	5,856.45	85.6396	5,856.45	85.2474	5,856.45	86.0902	5,856.45	84.5454	5,856.45	76.2158	5,856.45	82.5792	5,856.45	78.3174
6,062.99	105.404	6,062.99	104.868	6,062.99	105.114	6,062.99	103.923	6,062.99	104.145	6,062.99	102.649	6,062.99	103.065	6,062.99	101.408	6,062.99	101.512	6,062.99	100.018	6,062.99	100.206	6,062.99	97.5802	6,062.99	98.354	6,062.99	95.1533	6,062.99	96.0267	6,062.99	91.7861	6,062.99	93.2917	6,062.99	89.2763	6,062.99	90.1831	6,062.99	87.6337	6,062.99	87.6481	6,062.99	85.1705	6,062.99	85.4764	6,062.99	83.5187	6,062.99	83.7871	6,062.99	82.5665	6,062.99	82.7465	6,062.99	84.4876	6,062.99	82.1753	6,062.99	84.3536	6,062.99	84.1193	6,062.99	84.8726	6,062.99	82.4667	6,062.99	75.0977	6,062.99	83.8087	6,062.99	75.6028
6,276.86	106.161	6,276.86	105.747	6,276.86	105.969	6,276.86	104.604	6,276.86	105.095	6,276.86	103.224	6,276.86	103.855	6,276.86	101.916	6,276.86	102.5	6,276.86	100.062	6,276.86	101.004	6,276.86	97.5092	6,276.86	99.013	6,276.86	94.3808	6,276.86	96.6721	6,276.86	91.3882	6,276.86	93.0809	6,276.86	88.5084	6,276.86	90.0076	6,276.86	86.0932	6,276.86	87.5747	6,276.86	84.529	6,276.86	85.3278	6,276.86	83.2227	6,276.86	83.0669	6,276.86	82.3764	6,276.86	82.6365	6,276.86	84.7687	6,276.86	81.9722	6,276.86	84.2103	6,276.86	84.9918	6,276.86	85.0088	6,276.86	84.157	6,276.86	72.5853	6,276.86	85.3852	6,276.86	73.1103
6,498.05	106.09	6,498.05	105.242	6,498.05	105.964	6,498.05	104.175	6,498.05	104.976	6,498.05	103.151	6,498.05	104.102	6,498.05	101.851	6,498.05	103.015	6,498.05	100.069	6,498.05	101.446	6,498.05	97.1521	6,498.05	99.0938	6,498.05	94.3722	6,498.05	95.9497	6,498.05	90.7877	6,498.05	92.7919	6,498.05	88.5431	6,498.05	89.7376	6,498.05	86.084	6,498.05	86.7038	6,498.05	83.5567	6,498.05	84.0048	6,498.05	81.3436	6,498.05	81.6473	6,498.05	81.2812	6,498.05	79.929	6,498.05	83.1293	6,498.05	81.0963	6,498.05	84.6889	6,498.05	85.0594	6,498.05	85.1466	6,498.05	82.553	6,498.05	77.1572	6,498.05	84.6329	6,498.05	74.7596
6,727.29	106.471	6,727.29	105.734	6,727.29	106.265	6,727.29	104.931	6,727.29	105.425	6,727.29	104.015	6,727.29	104.638	6,727.29	102.67	6,727.29	103.556	6,727.29	100.27	6,727.29	101.584	6,727.29	96.5791	6,727.29	98.4682	6,727.29	93.155	6,727.29	95.3406	6,727.29	89.4786	6,727.29	90.6807	6,727.29	86.1418	6,727.29	87.9025	6,727.29	84.4332	6,727.29	84.9752	6,727.29	81.4842	6,727.29	83.7376	6,727.29	79.9343	6,727.29	82.3462	6,727.29	80.8568	6,727.29	81.3501	6,727.29	81.594	6,727.29	80.0922	6,727.29	84.517	6,727.29	85.0728	6,727.29	85.6219	6,727.29	84.1516	6,727.29	78.6084	6,727.29	84.8996	6,727.29	73.3614
6,964.6	106.555	6,964.6	106.216	6,964.6	106.418	6,964.6	105.429	6,964.6	105.852	6,964.6	104.32	6,964.6	104.923	6,964.6	102.426	6,964.6	103.509	6,964.6	99.5688	6,964.6	101.37	6,964.6	96.1137	6,964.6	98.3524	6,964.6	93.0564	6,964.6	95.0304	6,964.6	89.8146	6,964.6	92.0303	6,964.6	87.8027	6,964.6	89.4403	6,964.6	85.9787	6,964.6	87.2633	6,964.6	83.0594	6,964.6	85.4576	6,964.6	82.7881	6,964.6	83.1441	6,964.6	82.5977	6,964.6	80.1691	6,964.6	81.7977	6,964.6	81.778	6,964.6	86.019	6,964.6	85.2511	6,964.6	85.4135	6,964.6	84.2928	6,964.6	79.0046	6,964.6	85.9192	6,964.6	72.4612
7,209.96	106.77	7,209.96	105.846	7,209.96	106.44	7,209.96	104.85	7,209.96	105.361	7,209.96	103.834	7,209.96	104.328	7,209.96	101.942	7,209.96	103.011	7,209.96	99.0733	7,209.96	100.683	7,209.96	95.9842	7,209.96	97.8275	7,209.96	92.9857	7,209.96	95.0097	7,209.96	90.2325	7,209.96	91.8732	7,209.96	87.4133	7,209.96	89.4719	7,209.96	85.8789	7,209.96	86.6749	7,209.96	83.4136	7,209.96	85.1387	7,209.96	82.2506	7,209.96	82.8567	7,209.96	82.0128	7,209.96	80.6775	7,209.96	80.8497	7,209.96	80.7026	7,209.96	85.1909	7,209.96	83.6171	7,209.96	84.1245	7,209.96	83.9815	7,209.96	75.7214	7,209.96	84.9571	7,209.96	71.1085
7,464.11	105.731	7,464.11	105.086	7,464.11	105.527	7,464.11	104.239	7,464.11	104.72	7,464.11	103.035	7,464.11	103.763	7,464.11	101.129	7,464.11	102.421	7,464.11	98.671	7,464.11	100.214	7,464.11	95.8136	7,464.11	97.3686	7,464.11	92.7326	7,464.11	94.3851	7,464.11	90.1768	7,464.11	91.4285	7,464.11	88.0937	7,464.11	89.0677	7,464.11	86.0757	7,464.11	87.2848	7,464.11	83.8465	7,464.11	84.0305	7,464.11	82.4409	7,464.11	82.6104	7,464.11	81.7871	7,464.11	80.8987	7,464.11	81.9411	7,464.11	81.2395	7,464.11	84.3728	7,464.11	83.0684	7,464.11	83.5879	7,464.11	83.3529	7,464.11	74.8879	7,464.11	83.733	7,464.11	69.0765
7,727.78	104.775	7,727.78	104.043	7,727.78	104.581	7,727.78	103.404	7,727.78	103.649	7,727.78	102.41	7,727.78	102.922	7,727.78	100.412	7,727.78	101.625	7,727.78	97.4918	7,727.78	99.3143	7,727.78	94.8783	7,727.78	96.134	7,727.78	92.1872	7,727.78	93.2903	7,727.78	89.9214	7,727.78	90.6718	7,727.78	87.1664	7,727.78	87.5893	7,727.78	85.5044	7,727.78	85.3652	7,727.78	83.9679	7,727.78	83.7211	7,727.78	81.7172	7,727.78	81.23	7,727.78	80.3914	7,727.78	80.2924	7,727.78	81.4182	7,727.78	79.2455	7,727.78	83.4073	7,727.78	80.4805	7,727.78	82.0535	7,727.78	82.1889	7,727.78	74.352	7,727.78	81.7934	7,727.78	66.3003
8,000.24	104.487	8,000.24	103.83	8,000.24	104.336	8,000.24	103.339	8,000.24	103.531	8,000.24	102.351	8,000.24	102.932	8,000.24	100.136	8,000.24	101.324	8,000.24	97.4175	8,000.24	98.8356	8,000.24	94.6677	8,000.24	96.0075	8,000.24	91.6596	8,000.24	92.847	8,000.24	88.9001	8,000.24	89.6751	8,000.24	86.6935	8,000.24	86.9897	8,000.24	84.0098	8,000.24	84.3399	8,000.24	81.4459	8,000.24	82.1417	8,000.24	80.5388	8,000.24	79.019	8,000.24	79.4035	8,000.24	79.8326	8,000.24	79.9479	8,000.24	78.1691	8,000.24	82.2878	8,000.24	79.9099	8,000.24	80.8993	8,000.24	81.8849	8,000.24	73.2786	8,000.24	80.8941	8,000.24	54.7602
8,282.23	105.897	8,282.23	105.404	8,282.23	105.7	8,282.23	104.835	8,282.23	105.031	8,282.23	103.749	8,282.23	104.45	8,282.23	101.441	8,282.23	102.861	8,282.23	98.4771	8,282.23	100.07	8,282.23	95.8187	8,282.23	97.2141	8,282.23	92.3827	8,282.23	94.5098	8,282.23	89.3939	8,282.23	91.1219	8,282.23	86.5868	8,282.23	87.6341	8,282.23	83.9657	8,282.23	85.5514	8,282.23	81.4983	8,282.23	83.0151	8,282.23	79.909	8,282.23	79.5162	8,282.23	78.8492	8,282.23	80.2218	8,282.23	80.1136	8,282.23	78.9197	8,282.23	82.2087	8,282.23	79.877	8,282.23	81.5128	8,282.23	83.6579	8,282.23	72.5335	8,282.23	80.8159	8,282.23	66.6314
8,574.46	107.051	8,574.46	106.55	8,574.46	107.009	8,574.46	106.11	8,574.46	106.283	8,574.46	104.873	8,574.46	105.7	8,574.46	102.514	8,574.46	103.928	8,574.46	99.535	8,574.46	101.337	8,574.46	96.8085	8,574.46	98.5666	8,574.46	93.1499	8,574.46	95.4822	8,574.46	90.1074	8,574.46	92.2921	8,574.46	87.0934	8,574.46	88.5792	8,574.46	83.7943	8,574.46	86.3095	8,574.46	82.3308	8,574.46	83.8654	8,574.46	78.7462	8,574.46	81.3376	8,574.46	78.4901	8,574.46	80.941	8,574.46	80.011	8,574.46	79.6407	8,574.46	82.3847	8,574.46	79.8785	8,574.46	82.2922	8,574.46	84.2813	8,574.46	74.1584	8,574.46	80.9648	8,574.46	63.3173
8,876.22	107.007	8,876.22	106.898	8,876.22	106.913	8,876.22	106.221	8,876.22	106.588	8,876.22	104.897	8,876.22	105.675	8,876.22	102.609	8,876.22	103.91	8,876.22	99.6022	8,876.22	101.077	8,876.22	96.8225	8,876.22	98.2225	8,876.22	93.1302	8,876.22	95.0069	8,876.22	90.5188	8,876.22	91.9417	8,876.22	87.449	8,876.22	88.7289	8,876.22	84.9904	8,876.22	87.182	8,876.22	83.0767	8,876.22	84.1612	8,876.22	81.1174	8,876.22	81.734	8,876.22	78.6478	8,876.22	80.1862	8,876.22	80.7289	8,876.22	79.5231	8,876.22	83.5268	8,876.22	80.3283	8,876.22	83.6429	8,876.22	84.6761	8,876.22	73.6971	8,876.22	81.0316	8,876.22	71.5951
9,189.7	106.324	9,189.7	106.048	9,189.7	106.292	9,189.7	105.67	9,189.7	105.682	9,189.7	104.046	9,189.7	104.873	9,189.7	101.801	9,189.7	102.638	9,189.7	98.8875	9,189.7	99.9691	9,189.7	96.0544	9,189.7	97.3245	9,189.7	92.6192	9,189.7	93.9987	9,189.7	90.0892	9,189.7	90.8624	9,189.7	87.1506	9,189.7	87.4563	9,189.7	84.4767	9,189.7	85.2447	9,189.7	83.0397	9,189.7	83.0611	9,189.7	79.9678	9,189.7	81.0891	9,189.7	79.3492	9,189.7	79.0011	9,189.7	80.0644	9,189.7	77.9152	9,189.7	82.3174	9,189.7	79.3131	9,189.7	83.1639	9,189.7	83.4422	9,189.7	74.1215	9,189.7	79.5063	9,189.7	68.6193
9,513.43	105.232	9,513.43	105.474	9,513.43	105.27	9,513.43	104.604	9,513.43	105.023	9,513.43	102.867	9,513.43	103.742	9,513.43	100.248	9,513.43	101.394	9,513.43	97.3085	9,513.43	98.5412	9,513.43	94.5363	9,513.43	95.5428	9,513.43	90.947	9,513.43	91.9071	9,513.43	88.0342	9,513.43	89.0111	9,513.43	85.6537	9,513.43	85.2505	9,513.43	82.2466	9,513.43	82.9254	9,513.43	81.7442	9,513.43	81.1161	9,513.43	79.2235	9,513.43	79.0403	9,513.43	76.8038	9,513.43	76.89	9,513.43	78.4546	9,513.43	75.0321	9,513.43	81.1998	9,513.43	77.3678	9,513.43	81.4209	9,513.43	82.3491	9,513.43	70.6709	9,513.43	77.7039	9,513.43	70.6505
9,848.88	105.562	9,848.88	105.382	9,848.88	105.591	9,848.88	104.464	9,848.88	104.928	9,848.88	102.289	9,848.88	103.516	9,848.88	99.7756	9,848.88	101.004	9,848.88	96.3474	9,848.88	98.0343	9,848.88	92.9953	9,848.88	94.5904	9,848.88	88.8617	9,848.88	90.4943	9,848.88	84.9388	9,848.88	86.771	9,848.88	83.3956	9,848.88	83.4937	9,848.88	79.7925	9,848.88	81.3476	9,848.88	79.0242	9,848.88	79.5277	9,848.88	77.3106	9,848.88	77.107	9,848.88	74.6697	9,848.88	74.3604	9,848.88	75.7265	9,848.88	73.1674	9,848.88	79.6482	9,848.88	75.2704	9,848.88	79.801	9,848.88	80.9974	9,848.88	69.8429	9,848.88	76.248	9,848.88	69.83
10,196.8	106.561	10,196.8	106.481	10,196.8	106.594	10,196.8	105.232	10,196.8	105.945	10,196.8	103.011	10,196.8	104.212	10,196.8	100.193	10,196.8	101.581	10,196.8	96.3645	10,196.8	98.1982	10,196.8	92.5627	10,196.8	94.5074	10,196.8	88.3149	10,196.8	90.629	10,196.8	85.6121	10,196.8	87.0648	10,196.8	83.3984	10,196.8	84.5401	10,196.8	79.9807	10,196.8	82.351	10,196.8	78.6704	10,196.8	78.7883	10,196.8	76.6076	10,196.8	76.5084	10,196.8	72.2232	10,196.8	72.1971	10,196.8	73.4158	10,196.8	71.0362	10,196.8	79.2857	10,196.8	75.8807	10,196.8	78.8076	10,196.8	80.799	10,196.8	72.7831	10,196.8	76.8227	10,196.8	71.2665
10,556.4	107.355	10,556.4	107.204	10,556.4	107.469	10,556.4	105.793	10,556.4	106.676	10,556.4	103.362	10,556.4	104.787	10,556.4	100.422	10,556.4	102.099	10,556.4	96.4408	10,556.4	98.3718	10,556.4	92.5242	10,556.4	94.4527	10,556.4	89.0129	10,556.4	90.7711	10,556.4	86.3851	10,556.4	87.0202	10,556.4	83.5944	10,556.4	84.2221	10,556.4	79.661	10,556.4	81.8567	10,556.4	78.0939	10,556.4	77.1231	10,556.4	75.6841	10,556.4	76.4084	10,556.4	71.1141	10,556.4	73.5827	10,556.4	72.7493	10,556.4	67.5697	10,556.4	80.266	10,556.4	75.2376	10,556.4	79.5795	10,556.4	80.7289	10,556.4	75.5565	10,556.4	78.7915	10,556.4	72.0168
10,928.5	107.69	10,928.5	107.584	10,928.5	107.756	10,928.5	105.994	10,928.5	106.957	10,928.5	103.199	10,928.5	104.745	10,928.5	100.111	10,928.5	101.782	10,928.5	95.8086	10,928.5	97.8507	10,928.5	91.4467	10,928.5	93.6974	10,928.5	88.3942	10,928.5	89.9042	10,928.5	85.4755	10,928.5	86.2216	10,928.5	82.7614	10,928.5	83.0769	10,928.5	78.8898	10,928.5	80.7408	10,928.5	78.2263	10,928.5	76.8361	10,928.5	74.458	10,928.5	75.6419	10,928.5	68.8647	10,928.5	73.6359	10,928.5	71.9402	10,928.5	67.123	10,928.5	80.4346	10,928.5	73.2994	10,928.5	79.1357	10,928.5	80.01	10,928.5	75.4116	10,928.5	79.2515	10,928.5	69.2838
11,313.7	107.451	11,313.7	106.975	11,313.7	107.424	11,313.7	105.355	11,313.7	106.383	11,313.7	102.581	11,313.7	104.053	11,313.7	98.9953	11,313.7	100.786	11,313.7	94.5695	11,313.7	96.3212	11,313.7	89.9679	11,313.7	91.6176	11,313.7	86.9188	11,313.7	88.131	11,313.7	81.7532	11,313.7	83.7612	11,313.7	79.7247	11,313.7	81.1026	11,313.7	77.8472	11,313.7	79.2616	11,313.7	76.3797	11,313.7	76.2591	11,313.7	69.9539	11,313.7	74.3093	11,313.7	68.0522	11,313.7	70.5695	11,313.7	71.4715	11,313.7	63.6343	11,313.7	77.9687	11,313.7	69.4356	11,313.7	76.1074	11,313.7	77.5392	11,313.7	73.6993	11,313.7	76.6318	11,313.7	67.1716
11,712.9	106.249	11,712.9	106.038	11,712.9	106.254	11,712.9	104.241	11,712.9	105.317	11,712.9	100.985	11,712.9	102.88	11,712.9	96.6232	11,712.9	98.9113	11,712.9	91.6002	11,712.9	93.6051	11,712.9	87.1976	11,712.9	88.5509	11,712.9	83.2032	11,712.9	85.692	11,712.9	80.9279	11,712.9	82.3676	11,712.9	79.6002	11,712.9	80.5794	11,712.9	78.5672	11,712.9	80.0768	11,712.9	73.7706	11,712.9	76.1336	11,712.9	72.623	11,712.9	74.4481	11,712.9	67.5174	11,712.9	71.4816	11,712.9	67.4859	11,712.9	66.1265	11,712.9	75.7473	11,712.9	70.1615	11,712.9	72.2054	11,712.9	76.8922	11,712.9	72.0011	11,712.9	74.8372	11,712.9	64.5699
12,126	106.227	12,126	106.096	12,126	106.315	12,126	104.433	12,126	105.377	12,126	100.594	12,126	102.59	12,126	95.7359	12,126	98.2654	12,126	90.8571	12,126	93.0986	12,126	86.7479	12,126	89.3725	12,126	84.4484	12,126	87.1709	12,126	83.3303	12,126	85.3154	12,126	80.6322	12,126	81.6461	12,126	76.9782	12,126	79.6854	12,126	75.0037	12,126	75.7248	12,126	72.5339	12,126	74.0933	12,126	67.7195	12,126	71.7396	12,126	63.2925	12,126	65.9735	12,126	74.3275	12,126	68.1642	12,126	73.0286	12,126	74.9164	12,126	71.9993	12,126	74.3383	12,126	64.7687
12,553.7	106.818	12,553.7	106.852	12,553.7	106.99	12,553.7	104.71	12,553.7	106.244	12,553.7	100.736	12,553.7	103.093	12,553.7	96.1491	12,553.7	98.761	12,553.7	92.5191	12,553.7	94.2747	12,553.7	88.8058	12,553.7	91.7691	12,553.7	87.265	12,553.7	89.1881	12,553.7	84.3854	12,553.7	86.7056	12,553.7	81.3457	12,553.7	83.7385	12,553.7	78.3413	12,553.7	81.0865	12,553.7	76.8906	12,553.7	79.2958	12,553.7	74.1009	12,553.7	76.9682	12,553.7	68.2138	12,553.7	73.4963	12,553.7	70.5669	12,553.7	69.2242	12,553.7	72.6415	12,553.7	69.9269	12,553.7	74.5348	12,553.7	74.5236	12,553.7	71.1968	12,553.7	74.4614	12,553.7	70.2176
12,996.1	106.824	12,996.1	107.117	12,996.1	106.976	12,996.1	105.144	12,996.1	106.477	12,996.1	101.32	12,996.1	103.555	12,996.1	97.4661	12,996.1	99.9344	12,996.1	95.4348	12,996.1	97.047	12,996.1	93.0472	12,996.1	95.248	12,996.1	90.91	12,996.1	93.4592	12,996.1	87.493	12,996.1	90.839	12,996.1	83.5077	12,996.1	87.7465	12,996.1	83.0179	12,996.1	85.5389	12,996.1	78.9111	12,996.1	82.2755	12,996.1	77.4685	12,996.1	79.3908	12,996.1	67.1751	12,996.1	76.6837	12,996.1	74.0057	12,996.1	74.4848	12,996.1	70.9722	12,996.1	73.7288	12,996.1	76.7095	12,996.1	77.3054	12,996.1	73.0759	12,996.1	77.2606	12,996.1	72.9774
13,454.6	105.442	13,454.6	106.102	13,454.6	105.837	13,454.6	104.95	13,454.6	105.717	13,454.6	102.162	13,454.6	103.733	13,454.6	99.4804	13,454.6	101.504	13,454.6	97.6453	13,454.6	99.3403	13,454.6	94.4468	13,454.6	97.4355	13,454.6	91.1901	13,454.6	95.0155	13,454.6	87.9442	13,454.6	91.8988	13,454.6	84.7476	13,454.6	87.5006	13,454.6	83.2529	13,454.6	85.9988	13,454.6	79.2999	13,454.6	81.9306	13,454.6	79.2381	13,454.6	80.0095	13,454.6	68.3913	13,454.6	76.8744	13,454.6	63.4646	13,454.6	76.1214	13,454.6	73.8335	13,454.6	71.2478	13,454.6	79.3575	13,454.6	77.2538	13,454.6	74.8298	13,454.6	79.4747	13,454.6	72.5648
13,928.5	102.794	13,928.5	104.476	13,928.5	103.612	13,928.5	104.095	13,928.5	104.403	13,928.5	102.861	13,928.5	103.239	13,928.5	100.366	13,928.5	101.835	13,928.5	98.3645	13,928.5	99.8054	13,928.5	94.6244	13,928.5	97.636	13,928.5	92.0063	13,928.5	94.0977	13,928.5	88.7209	13,928.5	91.1326	13,928.5	84.9223	13,928.5	87.5702	13,928.5	82.849	13,928.5	85.5835	13,928.5	79.3484	13,928.5	81.4566	13,928.5	79.4457	13,928.5	80.8906	13,928.5	68.3706	13,928.5	77.8118	13,928.5	69.0532	13,928.5	73.1603	13,928.5	74.1913	13,928.5	64.5052	13,928.5	79.5902	13,928.5	73.5256	13,928.5	74.08	13,928.5	78.0487	13,928.5	66.8935
14,419.9	100.887	14,419.9	102.918	14,419.9	101.626	14,419.9	103.61	14,419.9	103.34	14,419.9	102.841	14,419.9	103.331	14,419.9	100.346	14,419.9	102.055	14,419.9	98.3133	14,419.9	99.6994	14,419.9	94.7196	14,419.9	97.2762	14,419.9	91.104	14,419.9	93.2956	14,419.9	87.0394	14,419.9	90.2273	14,419.9	83.6565	14,419.9	86.8471	14,419.9	82.2867	14,419.9	83.4937	14,419.9	79.1844	14,419.9	79.8522	14,419.9	78.7673	14,419.9	80.3112	14,419.9	72.3707	14,419.9	74.8374	14,419.9	74.2354	14,419.9	71.8452	14,419.9	72.6905	14,419.9	63.6891	14,419.9	78.2083	14,419.9	73.7769	14,419.9	71.5577	14,419.9	74.3161	14,419.9	66.9247
14,928.2	100.777	14,928.2	102.688	14,928.2	101.349	14,928.2	104.118	14,928.2	103.403	14,928.2	103.367	14,928.2	104.135	14,928.2	100.701	14,928.2	102.978	14,928.2	98.1972	14,928.2	100.351	14,928.2	94.5166	14,928.2	97.5542	14,928.2	91.0267	14,928.2	93.7973	14,928.2	86.8096	14,928.2	90.571	14,928.2	83.2345	14,928.2	86.7978	14,928.2	82.6695	14,928.2	84.5495	14,928.2	78.4427	14,928.2	81.3584	14,928.2	78.3435	14,928.2	80.027	14,928.2	75.9688	14,928.2	79.1475	14,928.2	72.2061	14,928.2	73.3688	14,928.2	68.2247	14,928.2	70.8733	14,928.2	76.8168	14,928.2	72.7411	14,928.2	69.0758	14,928.2	73.5674	14,928.2	67.9277
15,454.8	101.939	15,454.8	102.39	15,454.8	101.836	15,454.8	104.214	15,454.8	103.278	15,454.8	103.684	15,454.8	104.267	15,454.8	100.625	15,454.8	102.876	15,454.8	98.1277	15,454.8	100.101	15,454.8	94.0598	15,454.8	96.9734	15,454.8	89.8241	15,454.8	92.9755	15,454.8	86.6125	15,454.8	89.3742	15,454.8	83.5218	15,454.8	86.0987	15,454.8	81.1583	15,454.8	83.9477	15,454.8	78.5308	15,454.8	79.8756	15,454.8	76.7808	15,454.8	79.99	15,454.8	79.0548	15,454.8	76.0363	15,454.8	71.7703	15,454.8	75.6981	15,454.8	65.8399	15,454.8	71.8748	15,454.8	76.271	15,454.8	74.9878	15,454.8	72.4236	15,454.8	73.0364	15,454.8	67.2729
15,999.8	102.326	15,999.8	101.914	15,999.8	101.795	15,999.8	103.425	15,999.8	102.922	15,999.8	102.891	15,999.8	103.814	15,999.8	99.8418	15,999.8	101.941	15,999.8	97.0919	15,999.8	98.8011	15,999.8	93.5553	15,999.8	95.7093	15,999.8	90.6777	15,999.8	91.697	15,999.8	88.234	15,999.8	89.2488	15,999.8	84.2134	15,999.8	85.9298	15,999.8	81.4544	15,999.8	82.8843	15,999.8	77.6203	15,999.8	78.7126	15,999.8	76.7839	15,999.8	79.2197	15,999.8	78.0582	15,999.8	73.6563	15,999.8	74.6283	15,999.8	74.0341	15,999.8	68.714	15,999.8	65.3151	15,999.8	76.4657	15,999.8	71.8665	15,999.8	72.5254	15,999.8	70.8403	15,999.8	64.3388
16,564.5	102.241	16,564.5	101.161	16,564.5	101.592	16,564.5	102.551	16,564.5	102.325	16,564.5	101.899	16,564.5	103.063	16,564.5	98.9754	16,564.5	100.552	16,564.5	96.5132	16,564.5	97.2143	16,564.5	93.2269	16,564.5	94.005	16,564.5	90.7223	16,564.5	90.2365	16,564.5	87.8489	16,564.5	87.7186	16,564.5	84.6076	16,564.5	84.9738	16,564.5	81.9477	16,564.5	82.2659	16,564.5	78.6618	16,564.5	78.94	16,564.5	77.409	16,564.5	78.8888	16,564.5	76.6248	16,564.5	73.007	16,564.5	74.6311	16,564.5	71.6483	16,564.5	69.7561	16,564.5	64.8933	16,564.5	74.8415	16,564.5	67.8402	16,564.5	70.0034	16,564.5	60.9314	16,564.5	67.1594
17,148.2	103.132	17,148.2	101.391	17,148.2	102.129	17,148.2	102.547	17,148.2	102.433	17,148.2	102.019	17,148.2	102.917	17,148.2	99.1629	17,148.2	99.9604	17,148.2	96.5788	17,148.2	96.4608	17,148.2	93.6478	17,148.2	94.2414	17,148.2	90.0533	17,148.2	91.5984	17,148.2	86.6131	17,148.2	87.6723	17,148.2	83.9936	17,148.2	85.0382	17,148.2	82.1388	17,148.2	82.3611	17,148.2	77.3994	17,148.2	79.258	17,148.2	76.5851	17,148.2	78.0222	17,148.2	76.287	17,148.2	69.7833	17,148.2	73.122	17,148.2	69.7397	17,148.2	68.4081	17,148.2	70.4181	17,148.2	74.4183	17,148.2	64.6545	17,148.2	68.6503	17,148.2	66.4961	17,148.2	71.0551
17,753.2	104.1	17,753.2	102.4	17,753.2	102.483	17,753.2	103.053	17,753.2	102.624	17,753.2	102.5	17,753.2	102.996	17,753.2	99.5134	17,753.2	99.926	17,753.2	96.6968	17,753.2	96.9203	17,753.2	93.7902	17,753.2	95.783	17,753.2	90.4747	17,753.2	93.5654	17,753.2	86.9366	17,753.2	90.4092	17,753.2	81.9914	17,753.2	86.1157	17,753.2	81.9548	17,753.2	82.6455	17,753.2	76.0103	17,753.2	81.1252	17,753.2	75.6483	17,753.2	78.2977	17,753.2	73.8994	17,753.2	71.242	17,753.2	74.0553	17,753.2	70.8026	17,753.2	74.1493	17,753.2	73.8203	17,753.2	75.6229	17,753.2	55.8652	17,753.2	70.3826	17,753.2	68.1864	17,753.2	71.6001
18,379.4	103.834	18,379.4	102.318	18,379.4	101.6	18,379.4	102.87	18,379.4	100.825	18,379.4	102.011	18,379.4	101.236	18,379.4	98.6154	18,379.4	98.5401	18,379.4	95.6018	18,379.4	96.3824	18,379.4	92.6972	18,379.4	95.8024	18,379.4	89.1544	18,379.4	93.4115	18,379.4	86.3321	18,379.4	89.6903	18,379.4	80.0078	18,379.4	85.9771	18,379.4	81.2536	18,379.4	80.6252	18,379.4	75.3977	18,379.4	81.9712	18,379.4	76.2126	18,379.4	76.5651	18,379.4	75.7895	18,379.4	74.7006	18,379.4	75.0888	18,379.4	73.2008	18,379.4	76.1839	18,379.4	76.7256	18,379.4	76.2373	18,379.4	66.9096	18,379.4	76.3703	18,379.4	70.8459	18,379.4	72.5118
19,027.6	103.453	19,027.6	101.783	19,027.6	101.298	19,027.6	101.722	19,027.6	99.2463	19,027.6	100.217	19,027.6	99.549	19,027.6	96.2731	19,027.6	97.3993	19,027.6	92.9971	19,027.6	95.7419	19,027.6	90.2646	19,027.6	94.9439	19,027.6	87.0696	19,027.6	92.5926	19,027.6	84.9172	19,027.6	88.9789	19,027.6	77.2937	19,027.6	85.5874	19,027.6	79.881	19,027.6	76.2849	19,027.6	75.9643	19,027.6	81.4452	19,027.6	75.0614	19,027.6	72.2228	19,027.6	75.1207	19,027.6	78.4221	19,027.6	72.6338	19,027.6	73.6136	19,027.6	74.8491	19,027.6	76.0794	19,027.6	75.6453	19,027.6	71.5018	19,027.6	77.6385	19,027.6	71.8101	19,027.6	73.9098
19,698.5	104.01	19,698.5	101.715	19,698.5	102.064	19,698.5	101.126	19,698.5	99.7574	19,698.5	99.4039	19,698.5	99.3863	19,698.5	95.0594	19,698.5	97.4451	19,698.5	92.0409	19,698.5	95.5076	19,698.5	89.006	19,698.5	94.5627	19,698.5	86.1692	19,698.5	91.956	19,698.5	83.8167	19,698.5	88.2841	19,698.5	71.1735	19,698.5	85.7714	19,698.5	77.7679	19,698.5	67.4948	19,698.5	75.0281	19,698.5	81.1123	19,698.5	73.8254	19,698.5	63.7789	19,698.5	74.3617	19,698.5	80.8611	19,698.5	72.5773	19,698.5	73.059	19,698.5	75.5991	19,698.5	75.9613	19,698.5	76.6696	19,698.5	73.7619	19,698.5	78.9486	19,698.5	70.6418	19,698.5	75.2337
19,999.5	104.106	19,999.5	101.451	19,999.5	102.322	19,999.5	100.534	19,999.5	99.8111	19,999.5	98.94	19,999.5	99.0451	19,999.5	94.5668	19,999.5	96.7477	19,999.5	91.7861	19,999.5	94.7789	19,999.5	88.2624	19,999.5	93.8453	19,999.5	85.6586	19,999.5	91.1115	19,999.5	83.7288	19,999.5	87.0822	19,999.5	70.1707	19,999.5	85.4756	19,999.5	77.3162	19,999.5	68.066	19,999.5	74.4101	19,999.5	80.5379	19,999.5	74.4624	19,999.5	67.3892	19,999.5	73.6997	19,999.5	80.2639	19,999.5	70.9997	19,999.5	72.9648	19,999.5	76.5564	19,999.5	74.8498	19,999.5	77.274	19,999.5	74.3461	19,999.5	78.878	19,999.5	71.4352	19,999.5	75.4296
