"Early Reflections"											
"Floor Bounce"		"Ceiling Bounce"		"Front Wall Bounce"		"Side Wall Bounce"		"Rear Wall Bounce"		"Total Early Reflection"	
"Frequency [Hz]"	"Sound Pessure Level [dB]  / [2.83V 1m] "	"Frequency [Hz]"	"Sound Pessure Level [dB]  / [2.83V 1m] "	"Frequency [Hz]"	"Sound Pessure Level [dB]  / [2.83V 1m] "	"Frequency [Hz]"	"Sound Pessure Level [dB]  / [2.83V 1m] "	"Frequency [Hz]"	"Sound Pessure Level [dB]  / [2.83V 1m] "	"Frequency [Hz]"	"Sound Pessure Level [dB]  / [2.83V 1m] "
20.5078	62.5254	20.5078	61.2072	20.5078	62.1077	20.5078	61.6955	20.5078	60.7151	20.5078	61.7624
23.4375	60.6825	23.4375	59.3504	23.4375	60.1782	23.4375	59.8275	23.4375	59.1455	23.4375	59.9091
26.3672	67.6059	26.3672	65.2413	26.3672	66.5179	26.3672	66.515	26.3672	66.5159	26.3672	66.5316
29.2969	72.6165	29.2969	70.5656	29.2969	71.6751	29.2969	71.64	29.2969	71.5337	29.2969	71.6539
32.2266	74.9583	32.2266	72.632	32.2266	73.907	32.2266	73.8877	32.2266	73.8441	32.2266	73.9021
35.1563	77.0393	35.1563	74.8316	35.1563	76.0518	35.1563	76.011	35.1563	75.9232	35.1563	76.0267
38.0859	79.6827	38.0859	77.2276	38.0859	78.5728	38.0859	78.489	38.0859	78.3282	38.0859	78.5256
41.0156	81.0295	41.0156	78.5769	41.0156	79.9269	41.0156	79.8364	41.0156	79.6673	41.0156	79.874
43.9453	82.1354	43.9453	79.7314	43.9453	81.0661	43.9453	80.9373	43.9453	80.6994	43.9453	80.9833
46.875	83.0985	46.875	80.6409	46.875	82.0005	46.875	81.8901	46.875	81.6871	46.875	81.9326
49.8047	84.0282	49.8047	81.5655	49.8047	82.9359	49.8047	82.8145	49.8047	82.5989	49.8047	82.8595
55.6641	85.466	55.6641	83.0641	55.6641	84.3893	55.6641	84.2611	55.6641	84.0548	55.6641	84.3121
58.5938	86.5257	58.5938	83.9226	58.5938	85.3671	58.5938	85.2116	58.5938	84.97	58.5938	85.275
61.5234	86.9663	61.5234	84.3557	61.5234	85.8086	61.5234	85.6452	61.5234	85.3944	61.5234	85.7108
67.3828	87.5008	67.3828	84.8343	67.3828	86.3203	67.3828	86.142	67.3828	85.8804	67.3828	86.2149
73.2422	88.0633	73.2422	85.3572	73.2422	86.8772	73.2422	86.6689	73.2422	86.3892	73.2422	86.7534
76.1719	88.3152	76.1719	85.6062	76.1719	87.1323	76.1719	86.9028	76.1719	86.5892	76.1719	86.9936
82.0313	88.5921	82.0313	85.8503	82.0313	87.3818	82.0313	87.1576	82.0313	86.874	82.0313	87.2527
87.8906	89.1095	87.8906	86.2469	87.8906	87.8742	87.8906	87.594	87.8906	87.2391	87.8906	87.7067
93.75	89.0602	93.75	86.1249	93.75	87.7904	93.75	87.5103	93.75	87.2773	93.75	87.6382
102.539	88.901	102.539	85.8074	102.539	87.6089	102.539	87.2051	102.539	86.8186	102.539	87.3745
108.398	89.0623	108.398	85.7869	108.398	87.7799	108.398	87.2651	108.398	86.6669	108.398	87.4558
117.188	88.9915	117.188	85.8356	117.188	87.7699	117.188	87.2377	117.188	86.5855	117.188	87.4271
125.977	88.8872	125.977	85.7572	125.977	87.6859	125.977	87.0988	125.977	86.3844	125.977	87.309
134.766	88.7159	134.766	85.5908	134.766	87.5205	134.766	86.8949	134.766	86.2368	134.766	87.1301
143.555	88.4661	143.555	85.2423	143.555	87.2621	143.555	86.5715	143.555	85.7994	143.555	86.8257
155.273	88.2182	155.273	84.5344	155.273	86.9439	155.273	86.0828	155.273	85.1388	155.273	86.3976
164.063	88.6925	164.063	84.8458	164.063	87.4851	164.063	86.4811	164.063	85.1965	164.063	86.8189
175.781	88.4715	175.781	84.953	175.781	87.4412	175.781	86.5199	175.781	85.2265	175.781	86.791
190.43	88.3817	190.43	84.2126	190.43	87.3111	190.43	86.0458	190.43	84.5033	190.43	86.4559
202.148	88.5299	202.148	84.5181	202.148	87.6239	202.148	86.4311	202.148	84.5909	202.148	86.7486
216.797	87.5467	216.797	83.4634	216.797	86.6503	216.797	85.3918	216.797	83.5545	216.797	85.7399
234.375	87.9902	234.375	83.8756	234.375	87.2818	234.375	85.9026	234.375	83.9082	234.375	86.2622
249.023	87.8267	249.023	83.5541	249.023	87.2971	249.023	85.8727	249.023	83.8384	249.023	86.2036
266.602	88.6351	266.602	84.6713	266.602	88.416	266.602	86.9618	266.602	84.2869	266.602	87.2188
287.109	88.3302	287.109	85.116	287.109	88.3444	287.109	86.838	287.109	84.2796	287.109	87.131
307.617	88.3255	307.617	85.131	307.617	88.5792	307.617	87.0321	307.617	84.1882	307.617	87.2806
331.055	87.5054	331.055	85.3541	331.055	88.2583	331.055	86.7984	331.055	84.0805	331.055	86.9756
354.492	88.0885	354.492	85.3269	354.492	88.486	354.492	86.938	354.492	84.0833	354.492	87.1867
377.93	87.9722	377.93	85.543	377.93	88.4365	377.93	87.1322	377.93	84.3637	377.93	87.2571
407.227	86.8398	407.227	85.5574	407.227	87.8304	407.227	85.79	407.227	83.3163	407.227	86.3472
436.523	87.7014	436.523	83.6293	436.523	87.7693	436.523	85.2857	436.523	81.907	436.523	86.058
465.82	88.4636	465.82	85.3252	465.82	88.3487	465.82	86.0545	465.82	82.8637	465.82	86.8284
500.977	87.5466	500.977	84.019	500.977	87.8691	500.977	85.4415	500.977	81.6428	500.977	86.1385
536.133	88.3777	536.133	84.8301	536.133	88.4044	536.133	85.4104	536.133	82.0834	536.133	86.5637
574.219	88.3204	574.219	85.1513	574.219	88.0721	574.219	85.1159	574.219	81.5099	574.219	86.3359
615.234	88.3134	615.234	84.5529	615.234	88.2847	615.234	85.2186	615.234	80.8847	615.234	86.3809
659.18	88.51	659.18	84.443	659.18	88.6938	659.18	85.4589	659.18	80.9247	659.18	86.6533
706.055	88.0649	706.055	85.5267	706.055	87.976	706.055	84.9553	706.055	80.2016	706.055	86.1961
758.789	87.1392	758.789	85.7401	758.789	87.8168	758.789	84.4743	758.789	79.6498	758.789	85.846
811.523	87.9758	811.523	85.8277	811.523	87.9531	811.523	84.4654	811.523	79.015	811.523	86.035
870.117	87.9412	870.117	87.6116	870.117	88.3417	870.117	85.005	870.117	80.0542	870.117	86.5861
931.641	87.9983	931.641	87.4933	931.641	88.8026	931.641	84.9237	931.641	80.0226	931.641	86.7488
999.023	87.9214	999.023	86.4936	999.023	88.6217	999.023	84.5725	999.023	80.0377	999.023	86.4428
1,072.27	86.8277	1,072.27	86.9038	1,072.27	87.3905	1,072.27	83.6722	1,072.27	79.4665	1,072.27	85.5577
1,148.44	86.8393	1,148.44	86.7909	1,148.44	87.3237	1,148.44	83.7048	1,148.44	79.2875	1,148.44	85.5178
1,230.47	87.0559	1,230.47	86.5329	1,230.47	87.9271	1,230.47	84.9597	1,230.47	79.8582	1,230.47	86.1197
1,318.36	86.953	1,318.36	85.8146	1,318.36	87.8368	1,318.36	85.0777	1,318.36	80.0068	1,318.36	86.0229
1,415.04	86.757	1,415.04	85.8235	1,415.04	86.6951	1,415.04	84.7997	1,415.04	79.1388	1,415.04	85.4429
1,514.65	86.0245	1,514.65	85.6488	1,514.65	87.2111	1,514.65	85.8045	1,514.65	79.737	1,514.65	85.8822
1,623.05	84.8575	1,623.05	84.7544	1,623.05	87.3289	1,623.05	86.1707	1,623.05	79.8139	1,623.05	85.862
1,740.23	83.1103	1,740.23	83.0837	1,740.23	86.8814	1,740.23	85.3927	1,740.23	78.4236	1,740.23	85.0454
1,866.21	81.1268	1,866.21	80.7509	1,866.21	87.0431	1,866.21	85.3392	1,866.21	77.4935	1,866.21	84.8136
2,000.98	79.5294	2,000.98	78.8348	2,000.98	86.9004	2,000.98	84.559	2,000.98	76.2644	2,000.98	84.2458
2,144.53	78.6164	2,144.53	78.6212	2,144.53	87.7101	2,144.53	84.9905	2,144.53	76.8859	2,144.53	84.8099
2,296.88	77.3425	2,296.88	81.3853	2,296.88	87.6174	2,296.88	85.0206	2,296.88	76.9082	2,296.88	84.8508
2,460.94	79.2405	2,460.94	83.4433	2,460.94	88.3499	2,460.94	85.9975	2,460.94	77.9219	2,460.94	85.792
2,639.65	82.3789	2,639.65	84.7691	2,639.65	88.0008	2,639.65	86.2033	2,639.65	78.3257	2,639.65	85.9413
2,827.15	85.4442	2,827.15	85.2884	2,827.15	87.6646	2,827.15	86.4198	2,827.15	78.3723	2,827.15	86.1621
3,032.23	87.2208	3,032.23	85.3562	3,032.23	86.8322	3,032.23	85.7625	3,032.23	77.0879	3,032.23	85.8109
3,249.02	87.744	3,249.02	85.2578	3,249.02	85.8322	3,249.02	84.6665	3,249.02	75.7673	3,249.02	85.1516
3,483.4	87.3016	3,483.4	85.2992	3,483.4	85.7159	3,483.4	83.8824	3,483.4	75.363	3,483.4	84.7636
3,732.42	86.6708	3,732.42	84.7199	3,732.42	85.7812	3,732.42	83.5343	3,732.42	75.537	3,732.42	84.4816
3,999.02	86.0347	3,999.02	83.5793	3,999.02	86.2242	3,999.02	83.5808	3,999.02	75.4317	3,999.02	84.4283
4,286.13	85.0609	4,286.13	83.4517	4,286.13	86.9051	4,286.13	83.546	4,286.13	74.7559	4,286.13	84.549
4,593.75	85.0482	4,593.75	83.2182	4,593.75	87.1082	4,593.75	83.096	4,593.75	74.445	4,593.75	84.4888
4,924.8	84.6093	4,924.8	82.8144	4,924.8	86.903	4,924.8	82.4848	4,924.8	74.4159	4,924.8	84.1281
5,279.3	84.299	5,279.3	82.3365	5,279.3	86.2128	5,279.3	82.3382	5,279.3	73.9523	5,279.3	83.6574
5,657.23	84.2441	5,657.23	81.8636	5,657.23	86.4623	5,657.23	82.2773	5,657.23	72.179	5,657.23	83.7012
6,061.52	84.5268	6,061.52	82.4102	6,061.52	86.9486	6,061.52	82.5402	6,061.52	72.2506	6,061.52	84.1016
6,498.05	85.1835	6,498.05	82.6961	6,498.05	86.8742	6,498.05	82.6101	6,498.05	73.2308	6,498.05	84.2027
6,963.87	85.3825	6,963.87	82.3683	6,963.87	86.0919	6,963.87	82.2143	6,963.87	73.0794	6,963.87	83.722
7,464.84	85.2432	7,464.84	82.0609	7,464.84	85.2559	7,464.84	81.2688	7,464.84	71.5165	7,464.84	83.0231
8,000.98	85.1961	8,000.98	81.8707	8,000.98	85.4394	8,000.98	80.6994	8,000.98	70.1393	8,000.98	82.9336
8,575.2	85.4562	8,575.2	81.5114	8,575.2	86.0898	8,575.2	80.5997	8,575.2	68.4034	8,575.2	83.2479
9,190.43	85.6105	9,190.43	81.113	9,190.43	86.0677	9,190.43	80.181	9,190.43	67.7656	9,190.43	83.1504
9,849.61	85.3148	9,849.61	80.784	9,849.61	86.0978	9,849.61	79.8424	9,849.61	67.3203	9,849.61	83.0188
10,555.7	84.9244	10,555.7	80.0267	10,555.7	86.6206	10,555.7	80.0643	10,555.7	68.2052	10,555.7	83.2411
11,314.5	85.0986	11,314.5	79.3857	11,314.5	86.5603	11,314.5	79.3548	11,314.5	68.106	11,314.5	83.0788
12,126	84.8862	12,126	78.4881	12,126	86.2034	12,126	78.7296	12,126	67.158	12,126	82.6792
12,996.1	84.1989	12,996.1	77.6242	12,996.1	86.2067	12,996.1	78.6952	12,996.1	67.1774	12,996.1	82.5166
13,927.7	83.7781	13,927.7	76.8753	13,927.7	85.9257	13,927.7	78.3336	13,927.7	67.183	13,927.7	82.1835
14,929.7	83.4698	14,929.7	76.5207	14,929.7	85.8749	14,929.7	78.1319	14,929.7	66.6537	14,929.7	82.0553
15,999	83.1366	15,999	75.7239	15,999	85.8409	15,999	77.8905	15,999	64.5031	15,999	81.9141
17,147.5	82.9031	17,147.5	75.2924	17,147.5	85.6489	17,147.5	77.4267	17,147.5	63.887	17,147.5	81.668
18,377.9	82.2267	18,377.9	73.7942	18,377.9	85.1804	18,377.9	76.5627	18,377.9	63.7371	18,377.9	81.0885
19,699.2	80.4378	19,699.2	72.0383	19,699.2	84.1329	19,699.2	74.6511	19,699.2	62.8115	19,699.2	79.8128
19,998	79.9662	19,998	70.9553	19,998	83.8579	19,998	74.0839	19,998	64.2125	19,998	79.469
