"CEA2034"													
"On Axis"		"Listening Window"		"Early Reflections"		"Sound Power"		"Sound Power DI"		"Early Reflections DI"		"DI offset"	
"Frequency [Hz]"	"Sound Pessure Level [dB]  / [2.83V 1m] "	"Frequency [Hz]"	"Sound Pessure Level [dB]  / [2.83V 1m] "	"Frequency [Hz]"	"Sound Pessure Level [dB]  / [2.83V 1m] "	"Frequency [Hz]"	"Sound Pessure Level [dB]  / [2.83V 1m] "	"Frequency [Hz]"	"Sound Pessure Level [dB]  / [2.83V 1m] "	"Frequency [Hz]"	"Sound Pessure Level [dB]  / [2.83V 1m] "	"Frequency [Hz]"	"Sound Pessure Level [dB]  / [2.83V 1m] "
20.5078	39.9787	20.5078	39.4994	20.5078	38.8927	20.5078	41.9853	20.5078	37.4936	20.5078	40.5862	20.5078	39.9794
21.9727	40.5997	21.9727	40.1029	21.9727	40.3193	21.9727	44.1156	21.9727	35.9668	21.9727	39.7631	21.9727	39.9794
23.4375	43.0002	23.4375	42.5679	23.4375	42.0966	23.4375	44.9757	23.4375	37.5717	23.4375	40.4508	23.4375	39.9794
24.9023	44.3944	24.9023	44.0032	24.9023	43.8818	24.9023	46.8379	24.9023	37.1447	24.9023	40.1007	24.9023	39.9794
26.3672	45.8945	26.3672	45.544	26.3672	45.5551	26.3672	48.3869	26.3672	37.1366	26.3672	39.9683	26.3672	39.9794
27.832	47.6932	27.832	47.3797	27.832	47.2869	27.832	49.7715	27.832	37.5876	27.832	40.0722	27.832	39.9794
29.2969	49.4939	29.2969	49.2288	29.2969	49.1662	29.2969	51.3548	29.2969	37.8534	29.2969	40.0421	29.2969	39.9794
30.7617	51.124	30.7617	50.8865	30.7617	50.8008	30.7617	52.7587	30.7617	38.1072	30.7617	40.0651	30.7617	39.9794
32.2266	52.7782	32.2266	52.5787	32.2266	52.5607	32.2266	54.3343	32.2266	38.2238	32.2266	39.9974	32.2266	39.9794
33.6914	54.5106	33.6914	54.3378	33.6914	54.2712	33.6914	55.7646	33.6914	38.5526	33.6914	40.046	33.6914	39.9794
35.1563	56.0385	35.1563	55.8895	35.1563	55.8747	35.1563	57.2666	35.1563	38.6023	35.1563	39.9943	35.1563	39.9794
36.6211	57.71	36.6211	57.5775	36.6211	57.5158	36.6211	58.6837	36.6211	38.8732	36.6211	40.0412	36.6211	39.9794
38.0859	59.061	38.0859	58.9445	38.0859	58.9212	38.0859	60.0239	38.0859	38.9	38.0859	40.0027	38.0859	39.9794
39.5508	60.6402	39.5508	60.5454	39.5508	60.5673	39.5508	61.5733	39.5508	38.9515	39.5508	39.9575	39.5508	39.9794
41.0156	62.5727	41.0156	62.48	41.0156	62.3522	41.0156	63.0062	41.0156	39.4533	41.0156	40.1073	41.0156	39.9794
42.4805	63.6222	42.4805	63.5378	42.4805	63.4535	42.4805	64.1391	42.4805	39.3781	42.4805	40.0636	42.4805	39.9794
43.9453	64.8166	43.9453	64.7377	43.9453	64.6565	43.9453	65.2983	43.9453	39.4188	43.9453	40.0606	43.9453	39.9794
45.4102	66.1272	45.4102	66.0626	45.4102	66.0258	45.4102	66.6369	45.4102	39.4051	45.4102	40.0162	45.4102	39.9794
46.875	67.4243	46.875	67.366	46.875	67.3195	46.875	67.8454	46.875	39.5001	46.875	40.026	46.875	39.9794
48.3398	68.6665	48.3398	68.6089	48.3398	68.5304	48.3398	68.9725	48.3398	39.6157	48.3398	40.0578	48.3398	39.9794
51.2695	70.8221	51.2695	70.7807	51.2695	70.7528	51.2695	71.1634	51.2695	39.5967	51.2695	40.0074	51.2695	39.9794
52.7344	71.9391	52.7344	71.9013	52.7344	71.8654	52.7344	72.2194	52.7344	39.6613	52.7344	40.0153	52.7344	39.9794
54.1992	72.9352	54.1992	72.9012	54.1992	72.8645	54.1992	73.1779	54.1992	39.7026	54.1992	40.016	54.1992	39.9794
55.6641	73.8854	55.6641	73.8548	55.6641	73.8209	55.6641	74.1051	55.6641	39.7292	55.6641	40.0133	55.6641	39.9794
58.5938	75.6864	58.5938	75.6623	58.5938	75.6333	58.5938	75.867	58.5938	39.7746	58.5938	40.0084	58.5938	39.9794
60.0586	76.6277	60.0586	76.6054	60.0586	76.5711	60.0586	76.7726	60.0586	39.8122	60.0586	40.0137	60.0586	39.9794
62.9883	78.3082	62.9883	78.2927	62.9883	78.2816	62.9883	78.4755	62.9883	39.7966	62.9883	39.9904	62.9883	39.9794
64.4531	78.9486	64.4531	78.937	64.4531	78.9397	64.4531	79.131	64.4531	39.7854	64.4531	39.9767	64.4531	39.9794
67.3828	79.8915	67.3828	79.8847	67.3828	79.8954	67.3828	80.0616	67.3828	39.8025	67.3828	39.9687	67.3828	39.9794
68.8477	80.2561	68.8477	80.2508	68.8477	80.2609	68.8477	80.4121	68.8477	39.818	68.8477	39.9692	68.8477	39.9794
71.7773	81.1576	71.7773	81.1582	71.7773	81.1932	71.7773	81.3505	71.7773	39.7871	71.7773	39.9444	71.7773	39.9794
74.707	81.5134	74.707	81.519	74.707	81.5687	74.707	81.7125	74.707	39.7859	74.707	39.9297	74.707	39.9794
77.6367	81.4935	77.6367	81.5009	77.6367	81.5469	77.6367	81.6627	77.6367	39.8176	77.6367	39.9334	77.6367	39.9794
79.1016	81.6529	79.1016	81.6628	79.1016	81.7195	79.1016	81.8388	79.1016	39.8035	79.1016	39.9228	79.1016	39.9794
82.0313	82.0052	82.0313	82.0167	82.0313	82.0684	82.0313	82.156	82.0313	39.8401	82.0313	39.9277	82.0313	39.9794
84.9609	81.8976	84.9609	81.9069	84.9609	81.9297	84.9609	81.955	84.9609	39.9312	84.9609	39.9566	84.9609	39.9794
87.8906	81.9274	87.8906	81.9389	87.8906	81.9712	87.8906	82.0024	87.8906	39.9159	87.8906	39.947	87.8906	39.9794
90.8203	81.679	90.8203	81.7083	90.8203	81.8829	90.8203	82.1424	90.8203	39.5453	90.8203	39.8048	90.8203	39.9794
95.2148	81.92	95.2148	81.9347	95.2148	81.9615	95.2148	81.9354	95.2148	39.9786	95.2148	39.9526	95.2148	39.9794
98.1445	81.7258	98.1445	81.7488	98.1445	81.8356	98.1445	81.8983	98.1445	39.8298	98.1445	39.8925	98.1445	39.9794
101.074	81.908	101.074	81.9312	101.074	82.0175	101.074	82.0737	101.074	39.8369	101.074	39.8931	101.074	39.9794
105.469	81.7259	105.469	81.7523	105.469	81.8611	105.469	81.9484	105.469	39.7834	105.469	39.8706	105.469	39.9794
108.398	81.7817	108.398	81.8069	108.398	81.8994	108.398	81.9525	108.398	39.8338	108.398	39.8869	108.398	39.9794
112.793	82.2414	112.793	82.264	112.793	82.3326	112.793	82.3365	112.793	39.9069	112.793	39.9108	112.793	39.9794
117.188	82.0817	117.188	82.103	117.188	82.1674	117.188	82.1705	117.188	39.912	117.188	39.915	117.188	39.9794
120.117	82.5528	120.117	82.5712	120.117	82.6179	120.117	82.6035	120.117	39.9471	120.117	39.9327	120.117	39.9794
124.512	82.4415	124.512	82.4653	124.512	82.5359	124.512	82.54	124.512	39.9048	124.512	39.9088	124.512	39.9794
128.906	82.417	128.906	82.4387	128.906	82.4848	128.906	82.422	128.906	39.996	128.906	39.9333	128.906	39.9794
133.301	82.5443	133.301	82.5624	133.301	82.5919	133.301	82.5179	133.301	40.0239	133.301	39.9499	133.301	39.9794
139.16	82.5453	139.16	82.5675	139.16	82.6339	139.16	82.6315	139.16	39.9153	139.16	39.9129	139.16	39.9794
143.555	82.655	143.555	82.6736	143.555	82.7254	143.555	82.7234	143.555	39.9296	143.555	39.9276	143.555	39.9794
147.949	82.5685	147.949	82.5883	147.949	82.6548	147.949	82.6846	147.949	39.8831	147.949	39.9129	147.949	39.9794
153.809	82.9391	153.809	82.9445	153.809	82.915	153.809	82.8041	153.809	40.1197	153.809	40.0088	153.809	39.9794
159.668	83.228	159.668	83.2338	159.668	83.1816	159.668	82.9994	159.668	40.2138	159.668	40.0316	159.668	39.9794
165.527	83.2646	165.527	83.2707	165.527	83.2322	165.527	83.0889	165.527	40.1612	165.527	40.0179	165.527	39.9794
171.387	83.2443	171.387	83.2484	171.387	83.2061	171.387	83.0647	171.387	40.1632	171.387	40.0217	171.387	39.9794
177.246	83.2012	177.246	83.2008	177.246	83.1415	177.246	82.9947	177.246	40.1855	177.246	40.0387	177.246	39.9794
183.105	83.1721	183.105	83.167	183.105	83.0818	183.105	82.9109	183.105	40.2355	183.105	40.0646	183.105	39.9794
188.965	83.2804	188.965	83.2678	188.965	83.135	188.965	82.9088	188.965	40.3384	188.965	40.1123	188.965	39.9794
196.289	83.4464	196.289	83.4333	196.289	83.2875	196.289	83.0082	196.289	40.4045	196.289	40.1252	196.289	39.9794
203.613	83.3938	203.613	83.3643	203.613	83.1408	203.613	82.8152	203.613	40.5285	203.613	40.203	203.613	39.9794
210.938	83.4098	210.938	83.3827	210.938	83.1454	210.938	82.7593	210.938	40.6028	210.938	40.2167	210.938	39.9794
218.262	83.3746	218.262	83.3457	218.262	83.1099	218.262	82.7294	218.262	40.5957	218.262	40.2153	218.262	39.9794
225.586	83.3702	225.586	83.3328	225.586	83.0573	225.586	82.6535	225.586	40.6587	225.586	40.2549	225.586	39.9794
232.91	83.4244	232.91	83.3758	232.91	83.0287	232.91	82.5113	232.91	40.8439	232.91	40.3265	232.91	39.9794
241.699	83.3968	241.699	83.3396	241.699	82.9615	241.699	82.4141	241.699	40.9049	241.699	40.3575	241.699	39.9794
250.488	83.3635	250.488	83.3001	250.488	82.8553	250.488	82.2344	250.488	41.0451	250.488	40.4241	250.488	39.9794
259.277	83.543	259.277	83.4893	259.277	83.0776	259.277	82.4295	259.277	41.0392	259.277	40.3911	259.277	39.9794
268.066	83.0125	268.066	82.9487	268.066	82.5227	268.066	81.9574	268.066	40.9708	268.066	40.4054	268.066	39.9794
276.855	83.0801	276.855	83.012	276.855	82.4993	276.855	81.8116	276.855	41.1798	276.855	40.4921	276.855	39.9794
287.109	83.3947	287.109	83.3189	287.109	82.7648	287.109	81.8904	287.109	41.4079	287.109	40.5335	287.109	39.9794
297.363	83.3951	297.363	83.3062	297.363	82.7052	297.363	81.7345	297.363	41.5511	297.363	40.5805	297.363	39.9794
307.617	83.0186	307.617	82.9787	307.617	82.5988	307.617	81.809	307.617	41.1492	307.617	40.3593	307.617	39.9794
319.336	82.5255	319.336	82.467	319.336	82.0926	319.336	81.4145	319.336	41.0319	319.336	40.3538	319.336	39.9794
329.59	82.5194	329.59	82.4239	329.59	81.9267	329.59	81.2206	329.59	41.1827	329.59	40.4766	329.59	39.9794
341.309	82.1107	341.309	81.9777	341.309	81.4245	341.309	80.8859	341.309	41.0713	341.309	40.5326	341.309	39.9794
353.027	82.3936	353.027	82.2247	353.027	81.3213	353.027	80.4205	353.027	41.7837	353.027	40.8828	353.027	39.9794
366.211	82.9627	366.211	82.7683	366.211	81.6926	366.211	80.5695	366.211	42.1783	366.211	41.0551	366.211	39.9794
379.395	83.842	379.395	83.6527	379.395	82.519	379.395	81.3873	379.395	42.2448	379.395	41.1131	379.395	39.9794
392.578	83.6025	392.578	83.435	392.578	82.3867	392.578	81.176	392.578	42.2384	392.578	41.0277	392.578	39.9794
405.762	83.211	405.762	83.0138	405.762	81.8547	405.762	80.613	405.762	42.3802	405.762	41.1385	405.762	39.9794
420.41	83.6796	420.41	83.5141	420.41	82.3591	420.41	80.8188	420.41	42.6747	420.41	41.1344	420.41	39.9794
435.059	83.1824	435.059	83.0365	435.059	82.025	435.059	80.7072	435.059	42.3087	435.059	40.9909	435.059	39.9794
451.172	83.4898	451.172	83.3219	451.172	82.1353	451.172	80.4113	451.172	42.89	451.172	41.1659	451.172	39.9794
465.82	83.3441	465.82	83.1671	465.82	82.0333	465.82	80.3006	465.82	42.8459	465.82	41.1132	465.82	39.9794
483.398	83.0345	483.398	82.8757	483.398	81.7397	483.398	80.023	483.398	42.8321	483.398	41.1154	483.398	39.9794
499.512	83.0943	499.512	82.9238	499.512	81.7533	499.512	80.0455	499.512	42.8576	499.512	41.1499	499.512	39.9794
517.09	83.1729	517.09	83.0039	517.09	81.8003	517.09	80.1048	517.09	42.8785	517.09	41.183	517.09	39.9794
536.133	82.589	536.133	82.4105	536.133	81.1366	536.133	79.4641	536.133	42.9258	536.133	41.2533	536.133	39.9794
555.176	83.3025	555.176	83.1255	555.176	81.7389	555.176	79.4218	555.176	43.6831	555.176	41.366	555.176	39.9794
574.219	83.047	574.219	82.9412	574.219	81.7948	574.219	79.6129	574.219	43.3077	574.219	41.1257	574.219	39.9794
594.727	82.3208	594.727	82.2373	594.727	81.2947	594.727	79.3178	594.727	42.899	594.727	40.922	594.727	39.9794
615.234	81.6282	615.234	81.6278	615.234	81.0079	615.234	79.2221	615.234	42.3851	615.234	40.5993	615.234	39.9794
637.207	82.2728	637.207	82.0769	637.207	81.2583	637.207	79.3153	637.207	42.7409	637.207	40.798	637.207	39.9794
659.18	83.0891	659.18	82.8612	659.18	81.5946	659.18	79.2312	659.18	43.6094	659.18	41.2459	659.18	39.9794
682.617	83.209	682.617	82.953	682.617	81.6267	682.617	79.3151	682.617	43.6173	682.617	41.3058	682.617	39.9794
707.52	83.6391	707.52	83.3892	707.52	82.0583	707.52	79.5885	707.52	43.7801	707.52	41.3103	707.52	39.9794
732.422	83.8669	732.422	83.5424	732.422	82.1406	732.422	79.6747	732.422	43.8471	732.422	41.3812	732.422	39.9794
757.324	83.9832	757.324	83.7166	757.324	82.3539	757.324	79.9581	757.324	43.7379	757.324	41.3422	757.324	39.9794
785.156	84.431	785.156	84.1022	785.156	82.6504	785.156	80.1419	785.156	43.9398	785.156	41.4312	785.156	39.9794
811.523	84.2273	811.523	83.8734	811.523	82.2929	811.523	79.8209	811.523	44.0319	811.523	41.5599	811.523	39.9794
840.82	84.4876	840.82	84.1211	840.82	82.3123	840.82	79.8098	840.82	44.2907	840.82	41.7882	840.82	39.9794
870.117	84.5197	870.117	84.1036	870.117	82.1408	870.117	79.5632	870.117	44.5198	870.117	41.9422	870.117	39.9794
900.879	85.0016	900.879	84.6211	900.879	82.5415	900.879	79.7844	900.879	44.8161	900.879	42.059	900.879	39.9794
933.105	85.0018	933.105	84.5854	933.105	82.429	933.105	79.6998	933.105	44.865	933.105	42.1358	933.105	39.9794
965.332	85.1213	965.332	84.7459	965.332	82.5418	965.332	79.6548	965.332	45.0706	965.332	42.1835	965.332	39.9794
1,000.49	85.0428	1,000.49	84.6416	1,000.49	82.2936	1,000.49	79.3982	1,000.49	45.2228	1,000.49	42.3274	1,000.49	39.9794
1,035.64	84.4185	1,035.64	84.0953	1,035.64	81.906	1,035.64	79.1164	1,035.64	44.9583	1,035.64	42.1687	1,035.64	39.9794
1,072.27	83.9878	1,072.27	83.6681	1,072.27	81.5607	1,072.27	78.7153	1,072.27	44.9322	1,072.27	42.0868	1,072.27	39.9794
1,108.89	83.6021	1,108.89	83.3342	1,108.89	81.3231	1,108.89	78.5407	1,108.89	44.7729	1,108.89	41.9905	1,108.89	39.9794
1,148.44	83.6332	1,148.44	83.2432	1,148.44	81.2417	1,148.44	78.4183	1,148.44	44.8043	1,148.44	41.9809	1,148.44	39.9794
1,189.45	84.3131	1,189.45	83.9462	1,189.45	81.6138	1,189.45	78.5642	1,189.45	45.3615	1,189.45	42.3119	1,189.45	39.9794
1,230.47	84.4335	1,230.47	84.0029	1,230.47	81.7748	1,230.47	78.6786	1,230.47	45.3036	1,230.47	42.2074	1,230.47	39.9794
1,274.41	84.2738	1,274.41	83.8846	1,274.41	81.7462	1,274.41	78.5882	1,274.41	45.2758	1,274.41	42.1178	1,274.41	39.9794
1,319.82	83.8243	1,319.82	83.6005	1,319.82	81.5734	1,319.82	78.4814	1,319.82	45.0985	1,319.82	42.0065	1,319.82	39.9794
1,366.7	83.876	1,366.7	83.4586	1,366.7	81.3981	1,366.7	78.3259	1,366.7	45.112	1,366.7	42.0399	1,366.7	39.9794
1,413.57	83.5471	1,413.57	83.0383	1,413.57	81.0254	1,413.57	78.0022	1,413.57	45.0154	1,413.57	41.9923	1,413.57	39.9794
1,463.38	83.6797	1,463.38	83.0523	1,463.38	80.8546	1,463.38	77.8221	1,463.38	45.2096	1,463.38	42.1772	1,463.38	39.9794
1,516.11	84.5152	1,516.11	83.738	1,516.11	81.2626	1,516.11	77.948	1,516.11	45.7694	1,516.11	42.4548	1,516.11	39.9794
1,568.85	84.73	1,568.85	84.324	1,568.85	81.7415	1,568.85	78.1235	1,568.85	46.18	1,568.85	42.562	1,568.85	39.9794
1,624.51	84.2749	1,624.51	83.9753	1,624.51	81.5601	1,624.51	78.2041	1,624.51	45.7506	1,624.51	42.3945	1,624.51	39.9794
1,681.64	83.446	1,681.64	83.1335	1,681.64	81.2363	1,681.64	78.1511	1,681.64	44.9618	1,681.64	41.8767	1,681.64	39.9794
1,741.7	84.2386	1,741.7	83.826	1,741.7	81.3955	1,741.7	77.9295	1,741.7	45.8759	1,741.7	42.4099	1,741.7	39.9794
1,803.22	84.208	1,803.22	83.7815	1,803.22	81.2823	1,803.22	77.8126	1,803.22	45.9482	1,803.22	42.4786	1,803.22	39.9794
1,866.21	84.3815	1,866.21	83.7376	1,866.21	81.1767	1,866.21	77.4878	1,866.21	46.2292	1,866.21	42.5403	1,866.21	39.9794
1,932.13	84.0815	1,932.13	83.3609	1,932.13	80.8551	1,932.13	77.1172	1,932.13	46.2231	1,932.13	42.4852	1,932.13	39.9794
1,999.51	83.7742	1,999.51	83.3844	1,999.51	80.9469	1,999.51	77.1761	1,999.51	46.1877	1,999.51	42.4169	1,999.51	39.9794
2,069.82	85.0014	2,069.82	84.2946	2,069.82	81.586	2,069.82	77.6748	2,069.82	46.5992	2,069.82	42.688	2,069.82	39.9794
2,143.07	84.3935	2,143.07	83.6659	2,143.07	80.943	2,143.07	77.0735	2,143.07	46.5718	2,143.07	42.7023	2,143.07	39.9794
2,219.24	83.8928	2,219.24	83.1167	2,219.24	80.2831	2,219.24	76.5322	2,219.24	46.5639	2,219.24	42.813	2,219.24	39.9794
2,296.88	83.8527	2,296.88	83.336	2,296.88	80.6024	2,296.88	76.7025	2,296.88	46.6129	2,296.88	42.713	2,296.88	39.9794
2,378.91	85.0669	2,378.91	84.1602	2,378.91	81.1941	2,378.91	77.031	2,378.91	47.1086	2,378.91	42.9456	2,378.91	39.9794
2,462.4	83.9018	2,462.4	83.3642	2,462.4	80.7781	2,462.4	76.7462	2,462.4	46.5974	2,462.4	42.5655	2,462.4	39.9794
2,548.83	83.3269	2,548.83	82.885	2,548.83	80.4534	2,548.83	76.6124	2,548.83	46.252	2,548.83	42.411	2,548.83	39.9794
2,639.65	83.8536	2,639.65	83.3403	2,639.65	80.9694	2,639.65	77.1532	2,639.65	46.1665	2,639.65	42.3503	2,639.65	39.9794
2,731.93	83.9083	2,731.93	83.3863	2,731.93	81.2126	2,731.93	77.4779	2,731.93	45.8878	2,731.93	42.153	2,731.93	39.9794
2,828.61	83.6252	2,828.61	83.3696	2,828.61	81.4848	2,828.61	78.1106	2,828.61	45.2384	2,828.61	41.8642	2,828.61	39.9794
2,928.22	83.3885	2,928.22	83.4337	2,928.22	81.726	2,928.22	78.5498	2,928.22	44.8633	2,928.22	41.6871	2,928.22	39.9794
3,030.76	82.9258	3,030.76	83.1613	3,030.76	81.5902	3,030.76	78.6337	3,030.76	44.5069	3,030.76	41.5505	3,030.76	39.9794
3,137.7	82.851	3,137.7	83.3459	3,137.7	81.9923	3,137.7	79.1714	3,137.7	44.1539	3,137.7	41.333	3,137.7	39.9794
3,249.02	82.2905	3,249.02	82.9791	3,249.02	81.7112	3,249.02	79.1369	3,249.02	43.8216	3,249.02	41.2473	3,249.02	39.9794
3,363.28	81.7985	3,363.28	82.8851	3,363.28	81.6464	3,363.28	79.1834	3,363.28	43.6812	3,363.28	41.2181	3,363.28	39.9794
3,481.93	81.7801	3,481.93	82.6985	3,481.93	81.5431	3,481.93	78.8848	3,481.93	43.7932	3,481.93	41.1348	3,481.93	39.9794
3,604.98	81.8412	3,604.98	82.6599	3,604.98	81.392	3,604.98	78.3697	3,604.98	44.2696	3,604.98	41.2472	3,604.98	39.9794
3,732.42	81.8334	3,732.42	82.5545	3,732.42	81.046	3,732.42	77.7773	3,732.42	44.7565	3,732.42	41.4879	3,732.42	39.9794
3,864.26	81.7963	3,864.26	82.424	3,864.26	80.9582	3,864.26	77.5693	3,864.26	44.8341	3,864.26	41.4453	3,864.26	39.9794
4,000.49	82.2976	4,000.49	82.5616	4,000.49	80.821	4,000.49	77.22	4,000.49	45.321	4,000.49	41.72	4,000.49	39.9794
4,141.11	83.1421	4,141.11	83.1445	4,141.11	81.0268	4,141.11	77.2494	4,141.11	45.8745	4,141.11	42.0971	4,141.11	39.9794
4,287.6	83.4522	4,287.6	82.9587	4,287.6	80.6746	4,287.6	76.805	4,287.6	46.1332	4,287.6	42.2635	4,287.6	39.9794
4,438.48	82.9872	4,438.48	82.7957	4,438.48	80.8026	4,438.48	76.9281	4,438.48	45.847	4,438.48	41.9725	4,438.48	39.9794
4,595.21	83.6576	4,595.21	82.9382	4,595.21	80.7325	4,595.21	76.806	4,595.21	46.1116	4,595.21	42.1851	4,595.21	39.9794
4,756.35	83.5979	4,756.35	82.6443	4,756.35	80.5034	4,756.35	76.7607	4,756.35	45.8629	4,756.35	42.1203	4,756.35	39.9794
4,924.8	84.1805	4,924.8	82.6812	4,924.8	80.4964	4,924.8	76.7901	4,924.8	45.8705	4,924.8	42.1642	4,924.8	39.9794
5,097.66	84.3744	5,097.66	82.5763	5,097.66	80.3414	5,097.66	76.6378	5,097.66	45.9179	5,097.66	42.2143	5,097.66	39.9794
5,277.83	84.4244	5,277.83	82.6273	5,277.83	80.1436	5,277.83	76.2383	5,277.83	46.3684	5,277.83	42.4631	5,277.83	39.9794
5,463.87	84.0615	5,463.87	82.0622	5,463.87	79.784	5,463.87	75.8089	5,463.87	46.2327	5,463.87	42.2576	5,463.87	39.9794
5,657.23	83.8072	5,657.23	82.2198	5,657.23	80.1159	5,657.23	75.9485	5,657.23	46.2507	5,657.23	42.0833	5,657.23	39.9794
5,856.45	83.3746	5,856.45	82.2188	5,856.45	80.0608	5,856.45	75.8505	5,856.45	46.3477	5,856.45	42.1374	5,856.45	39.9794
6,062.99	82.7743	6,062.99	82.1582	6,062.99	79.7757	6,062.99	75.7597	6,062.99	46.378	6,062.99	42.3619	6,062.99	39.9794
6,276.86	82.7685	6,276.86	82.2467	6,276.86	79.7083	6,276.86	75.5932	6,276.86	46.6329	6,276.86	42.5178	6,276.86	39.9794
6,498.05	82.6148	6,498.05	82.2359	6,498.05	79.6365	6,498.05	75.5397	6,498.05	46.6756	6,498.05	42.5788	6,498.05	39.9794
6,726.56	82.9012	6,726.56	82.3484	6,726.56	79.6497	6,726.56	75.5531	6,726.56	46.7747	6,726.56	42.678	6,726.56	39.9794
6,963.87	82.3674	6,963.87	81.8533	6,963.87	79.1855	6,963.87	75.229	6,963.87	46.6037	6,963.87	42.6472	6,963.87	39.9794
7,209.96	81.8141	7,209.96	81.3627	7,209.96	78.8256	7,209.96	74.8684	7,209.96	46.4737	7,209.96	42.5165	7,209.96	39.9794
7,464.84	81.4932	7,464.84	80.8315	7,464.84	78.2438	7,464.84	74.3434	7,464.84	46.4675	7,464.84	42.5671	7,464.84	39.9794
7,727.05	81.1698	7,727.05	80.6884	7,727.05	78.0928	7,727.05	74.2544	7,727.05	46.4134	7,727.05	42.575	7,727.05	39.9794
7,999.51	81.6658	7,999.51	81.0387	7,999.51	78.3264	7,999.51	74.3116	7,999.51	46.7065	7,999.51	42.6917	7,999.51	39.9794
8,282.23	82.4047	8,282.23	81.6862	8,282.23	78.7774	8,282.23	74.4735	8,282.23	47.1921	8,282.23	42.8882	8,282.23	39.9794
8,573.73	82.8641	8,573.73	82.0591	8,573.73	79.048	8,573.73	74.5716	8,573.73	47.4669	8,573.73	42.9905	8,573.73	39.9794
8,876.95	82.8429	8,876.95	82.0279	8,876.95	78.8168	8,876.95	74.3306	8,876.95	47.6767	8,876.95	43.1905	8,876.95	39.9794
9,188.96	82.7115	9,188.96	81.8581	9,188.96	78.5547	9,188.96	74.0669	9,188.96	47.7706	9,188.96	43.2828	9,188.96	39.9794
9,514.16	82.7913	9,514.16	81.8205	9,514.16	78.4292	9,514.16	73.8526	9,514.16	47.9474	9,514.16	43.3708	9,514.16	39.9794
9,849.61	83.0864	9,849.61	81.9741	9,849.61	78.4773	9,849.61	73.7422	9,849.61	48.2113	9,849.61	43.4761	9,849.61	39.9794
10,196.8	83.4233	10,196.8	82.2334	10,196.8	78.6368	10,196.8	73.7611	10,196.8	48.4516	10,196.8	43.576	10,196.8	39.9794
10,555.7	83.4424	10,555.7	82.3456	10,555.7	78.6685	10,555.7	73.7231	10,555.7	48.6019	10,555.7	43.6565	10,555.7	39.9794
10,927.7	83.2117	10,927.7	82.1703	10,927.7	78.471	10,927.7	73.5014	10,927.7	48.6484	10,927.7	43.6787	10,927.7	39.9794
11,313	82.8406	11,313	81.8778	11,313	78.174	11,313	73.2699	11,313	48.5873	11,313	43.6832	11,313	39.9794
11,712.9	82.475	11,712.9	81.4842	11,712.9	77.6953	11,712.9	72.8712	11,712.9	48.5924	11,712.9	43.7683	11,712.9	39.9794
12,126	82.4643	12,126	81.2654	12,126	77.3621	12,126	72.4774	12,126	48.7674	12,126	43.8827	12,126	39.9794
12,553.7	82.6936	12,553.7	81.3363	12,553.7	77.2483	12,553.7	72.2063	12,553.7	49.1094	12,553.7	44.0674	12,553.7	39.9794
12,996.1	82.4821	12,996.1	81.1748	12,996.1	77.0714	12,996.1	71.9632	12,996.1	49.191	12,996.1	44.0827	12,996.1	39.9794
13,454.6	82.256	13,454.6	81.0112	13,454.6	76.8115	13,454.6	71.5453	13,454.6	49.4453	13,454.6	44.1791	13,454.6	39.9794
13,929.2	82.1153	13,929.2	80.8231	13,929.2	76.5514	13,929.2	71.1803	13,929.2	49.6222	13,929.2	44.2511	13,929.2	39.9794
14,419.9	82.0136	14,419.9	80.6393	14,419.9	76.3152	14,419.9	70.8796	14,419.9	49.7392	14,419.9	44.3035	14,419.9	39.9794
14,928.2	82.0698	14,928.2	80.6668	14,928.2	76.2403	14,928.2	70.7599	14,928.2	49.8863	14,928.2	44.4059	14,928.2	39.9794
15,455.6	82.5261	15,455.6	81.0643	15,455.6	76.5154	15,455.6	70.9356	15,455.6	50.1081	15,455.6	44.5282	15,455.6	39.9794
16,000.5	82.5534	16,000.5	81.0803	16,000.5	76.4119	16,000.5	70.7194	16,000.5	50.3403	16,000.5	44.6479	16,000.5	39.9794
16,564.5	81.977	16,564.5	80.4294	16,564.5	75.5898	16,564.5	69.7629	16,564.5	50.6458	16,564.5	44.8189	16,564.5	39.9794
17,148.9	80.5607	17,148.9	78.8741	17,148.9	73.947	17,148.9	68.1068	17,148.9	50.7467	17,148.9	44.9065	17,148.9	39.9794
17,752.4	82.5349	17,752.4	80.6263	17,752.4	75.5662	17,752.4	69.4801	17,752.4	51.1256	17,752.4	45.0395	17,752.4	39.9794
18,379.4	82.259	18,379.4	80.1066	18,379.4	74.787	18,379.4	68.4463	18,379.4	51.6397	18,379.4	45.299	18,379.4	39.9794
19,026.9	80.9669	19,026.9	78.5935	19,026.9	73.1282	19,026.9	66.647	19,026.9	51.9259	19,026.9	45.4447	19,026.9	39.9794
19,697.8	80.2928	19,697.8	77.6146	19,697.8	72.04	19,697.8	65.2847	19,697.8	52.3093	19,697.8	45.554	19,697.8	39.9794
19,999.5	79.8773	19,999.5	77.0881	19,999.5	71.4739	19,999.5	64.6321	19,999.5	52.4354	19,999.5	45.5936	19,999.5	39.9794
